Data File Name,GG_20170621_High Sensitivity DNA Assay_DE24802700_2017-06-21_14-37-03.xad
Data File Path,C:\Users\jlchiniquy\Desktop\20171205_Nextera_library_size_to_loading_concentration_tool\GGoyal
Date Created,"Wednesday, June 21, 2017 9:37:03 PM"
Date Last Modified,"Wednesday, June 21, 2017 10:15:32 PM"
Version Created,B.02.07.SI532
Version Last Modified,B.02.07.SI532
 
Assay Name,High Sensitivity DNA
Assay Path,C:\Program Files\Agilent\2100 bioanalyzer\2100 expert\assays\dsDNA
Assay Title,High Sensitivity DNA Assay
Assay Version,1.0
 
Number of Samples Run,10
 
Sample Name,Ladder
Number of Events,2121
 
Time,Value
32,0.1325684
32.05,0.1325684
32.1,0.1325684
32.15,0.1325684
32.2,0.1325684
32.25,0.1325684
32.3,0.1325684
32.35,0.1325684
32.4,0.1325684
32.45,0.1325684
32.5,0.1325684
32.55,0.1325684
32.6,0.1325684
32.65,0.1325684
32.7,0.1325684
32.75,0.1325684
32.8,0.1325684
32.85,0.1325684
32.9,0.1325684
32.95,0.1325684
33,0.1325684
33.05,0.1325684
33.1,0.1325684
33.15,0.1325684
33.2,0.1325684
33.25,0.1325684
33.3,0.1325684
33.35,0.1325684
33.4,0.1325684
33.45,0.1325684
33.5,0.1325684
33.55,0.1325684
33.6,3.534172E-02
33.65,-3.526938E-02
33.7,-0.1548251
33.75,-0.1573763
33.8,-7.097889E-02
33.85,-0.0732891
33.9,-0.1432818
33.95,-0.0826726
34,-0.1079766
34.05,5.963099E-02
34.1,0.1446839
34.15,0.3099551
34.2,0.2164497
34.25,3.830307E-02
34.3,1.524254E-02
34.35,-4.426961E-02
34.4,-9.015241E-02
34.45,1.116484E-02
34.5,0.0343441
34.55,3.817396E-02
34.6,2.986396E-02
34.65,0.1332555
34.7,8.264475E-02
34.75,1.461845E-02
34.8,5.260771E-02
34.85,5.482439E-02
34.9,1.634087E-02
34.95,1.611255E-02
35,4.454267E-02
35.05,0.1079606
35.1,0.1321503
35.15,0.3244624
35.2,0.4255716
35.25,0.4375463
35.3,0.462368
35.35,0.4141326
35.4,0.3704173
35.45,0.2404974
35.5,0.1098619
35.55,0.0814028
35.6,4.583991E-02
35.65,0.1181442
35.7,0.1969418
35.75,0.212732
35.8,0.1925463
35.85,5.362163E-02
35.9,1.597603E-02
35.95,5.142508E-02
36,7.362164E-02
36.05,0.1177984
36.1,4.473213E-02
36.15,-0.1874824
36.2,-0.3663328
36.25,-0.3502835
36.3,-0.275013
36.35,-0.197429
36.4,-0.0788923
36.45,4.824994E-02
36.5,5.001101E-02
36.55,2.479865E-02
36.6,2.479521E-02
36.65,-2.042589E-02
36.7,-0.160413
36.75,-0.2322759
36.8,-0.2416462
36.85,-0.2271302
36.9,-0.1401285
36.95,-0.1190751
37,-0.1840031
37.05,-0.2344247
37.1,-0.269539
37.15,-0.2090026
37.2,-0.1435742
37.25,-0.0610268
37.3,-5.963554E-02
37.35,-0.1236855
37.4,-0.102876
37.45,-0.1309921
37.5,-0.1347596
37.55,-0.1657454
37.6,-0.2536106
37.65,-0.2764328
37.7,-0.2374436
37.75,-0.1742707
37.8,-0.1669635
37.85,-0.1954691
37.9,-6.263315E-02
37.95,3.692289E-02
38,9.252325E-02
38.05,9.414113E-02
38.1,-2.447288E-03
38.15,-9.690227E-02
38.2,-0.2241417
38.25,-0.2895991
38.3,-0.2256397
38.35,-5.993741E-02
38.4,5.024231E-02
38.45,5.663921E-02
38.5,5.935219E-02
38.55,-8.772095E-05
38.6,-0.1042228
38.65,-3.183567E-02
38.7,6.835848E-02
38.75,8.991466E-02
38.8,5.788831E-02
38.85,8.807053E-02
38.9,0.1699627
38.95,6.428211E-02
39,1.555731E-02
39.05,-4.761399E-02
39.1,-0.1110578
39.15,-0.1521094
39.2,-0.1830634
39.25,-0.1025679
39.3,-0.1878433
39.35,-0.2446119
39.4,-0.1804794
39.45,-0.2467538
39.5,-0.3057357
39.55,-0.3806196
39.6,-0.4041021
39.65,-0.3671316
39.7,-0.3862541
39.75,-0.3652909
39.8,-0.4699258
39.85,-0.5975747
39.9,-0.6245279
39.95,-0.6455307
40,-0.6379682
40.05,-0.6421062
40.1,-0.6439432
40.15,-0.6125585
40.2,-0.5774621
40.25,-0.5485764
40.3,-0.5823328
40.35,-0.5862736
40.4,-0.5612744
40.45,-0.5755218
40.5,-0.5612721
40.55,-0.5349838
40.6,-0.4653043
40.65,-0.3953158
40.7,-0.386234
40.75,-0.3836108
40.8,-0.3846873
40.85,-0.4200974
40.9,-0.460746
40.95,-0.4499832
41,-0.3959369
41.05,-0.3939344
41.1,-0.4169903
41.15,-0.424194
41.2,-0.4340765
41.25,-0.4718739
41.3,-0.4912097
41.35,-0.4676711
41.4,-0.4241567
41.45,-0.3789021
41.5,-0.4194836
41.55,-0.5197292
41.6,-0.6075026
41.65,-0.7272508
41.7,-0.8045655
41.75,-0.8014383
41.8,-0.7962741
41.85,-0.7969369
41.9,-0.8464983
41.95,-0.745476
42,-0.5925269
42.05,-0.5433085
42.1,-0.6138802
42.15,-0.734055
42.2,-0.8617576
42.25,-0.9711807
42.3,-0.8545241
42.35,-0.5807924
42.4,-0.5316959
42.45,-0.5674127
42.5,-0.4298289
42.55,0.5129128
42.6,2.737868
42.65,7.423177
42.7,15.3723
42.75,27.47095
42.8,43.46939
42.85,61.7127
42.9,78.60885
42.95,90.14622
43,92.91513
43.05,86.32438
43.1,71.97453
43.15,53.7087
43.2,35.41692
43.25,20.45251
43.3,10.06048
43.35,4.095975
43.4,1.324891
43.45,0.4224339
43.5,0.1160761
43.55,-4.625082E-02
43.6,-0.1529904
43.65,-0.1376064
43.7,-0.1408749
43.75,-0.1079714
43.8,-9.698047E-02
43.85,-0.2080441
43.9,-0.2872859
43.95,-0.3328917
44,-0.3639753
44.05,-0.3804334
44.1,-0.3994474
44.15,-0.4009309
44.2,-0.4003589
44.25,-0.3981833
44.3,-0.3485386
44.35,-0.348524
44.4,-0.3584344
44.45,-0.3753936
44.5,-0.4615712
44.55,-0.5846856
44.6,-0.5842259
44.65,-0.5011685
44.7,-0.4037499
44.75,-0.3469563
44.8,-0.1383
44.85,0.7657284
44.9,3.717885
44.95,11.16896
45,27.13998
45.05,55.96322
45.1,100.8836
45.15,161.8822
45.2,232.1198
45.25,297.8767
45.3,342.8855
45.35,353.6326
45.4,326.1739
45.45,268.057
45.5,195.1686
45.55,125.0904
45.6,70.20797
45.65,34.82156
45.7,16.37169
45.75,8.646485
45.8,6.305375
45.85,5.60664
45.9,5.004741
45.95,4.507995
46,4.130186
46.05,3.744777
46.1,3.485716
46.15,3.19503
46.2,2.920781
46.25,2.593132
46.3,2.303706
46.35,2.06854
46.4,1.832065
46.45,1.500207
46.5,1.181595
46.55,0.8220262
46.6,0.6262724
46.65,0.3936145
46.7,0.2726782
46.75,0.2546092
46.8,0.1153236
46.85,-3.558758E-02
46.9,-0.189429
46.95,-0.1874092
47,-0.2839815
47.05,-0.2996814
47.1,-0.2697233
47.15,-0.3344604
47.2,-0.3344195
47.25,-0.2202469
47.3,-0.2376193
47.35,-0.2412385
47.4,-0.3510425
47.45,-0.3262807
47.5,-0.4407677
47.55,-0.4974517
47.6,-0.6075312
47.65,-0.5784611
47.7,-0.6022089
47.75,-0.5929455
47.8,-0.5262369
47.85,-0.506185
47.9,-0.5494783
47.95,-0.6148607
48,-0.6151363
48.05,-0.5722501
48.1,-0.6779792
48.15,-0.7705168
48.2,-0.7626808
48.25,-0.7454546
48.3,-0.6913888
48.35,-0.6450789
48.4,-0.6628278
48.45,-0.7183905
48.5,-0.7741608
48.55,-0.7604655
48.6,-0.657312
48.65,-0.6021901
48.7,-0.6158925
48.75,-0.6868142
48.8,-0.6962868
48.85,-0.7129076
48.9,-0.738456
48.95,-0.6726592
49,-0.5795768
49.05,-0.5120841
49.1,-0.4664534
49.15,-0.4303164
49.2,-0.44732
49.25,-0.4888751
49.3,-0.502022
49.35,-0.5465451
49.4,-0.5589983
49.45,-0.5959907
49.5,-0.6187337
49.55,-0.5499488
49.6,-0.4216498
49.65,-0.263593
49.7,-0.2213926
49.75,-0.2019212
49.8,-0.1797616
49.85,-0.2745985
49.9,-0.3433393
49.95,-0.3539817
50,-0.3693573
50.05,-0.3497318
50.1,-0.3520306
50.15,-0.2811187
50.2,-0.2348769
50.25,-0.2046597
50.3,-0.1361373
50.35,-0.1218117
50.4,-0.1902611
50.45,-0.2510179
50.5,-5.709709E-02
50.55,1.735501
50.6,7.779781
50.65,23.52413
50.7,56.79782
50.75,114.361
50.8,197.9702
50.85,299.7571
50.9,397.9456
50.95,466.1908
51,481.5361
51.05,437.3137
51.1,348.1126
51.15,240.9666
51.2,144.3142
51.25,75.44711
51.3,36.47008
51.35,20.28322
51.4,14.95964
51.45,13.2485
51.5,12.16458
51.55,10.78306
51.6,9.281796
51.65,7.83811
51.7,6.762321
51.75,5.879965
51.8,4.903776
51.85,3.969983
51.9,3.231812
51.95,2.714037
52,2.104611
52.05,1.688829
52.1,1.490772
52.15,1.325322
52.2,1.069345
52.25,0.9963465
52.3,1.010393
52.35,0.8752849
52.4,0.6583717
52.45,0.6048937
52.5,0.509176
52.55,0.3456032
52.6,0.2871608
52.65,0.2711648
52.7,0.1982721
52.75,0.2150533
52.8,0.2843584
52.85,0.2632185
52.9,0.1152448
52.95,-4.541378E-02
53,-0.1182469
53.05,-0.1615315
53.1,-0.115836
53.15,-6.219559E-02
53.2,-6.223528E-02
53.25,-0.0649684
53.3,-4.470342E-02
53.35,-2.999795E-02
53.4,-6.754918E-02
53.45,-0.150708
53.5,-0.192885
53.55,-0.2618779
53.6,-0.3362251
53.65,-0.4100811
53.7,-0.4551322
53.75,-0.5279962
53.8,-0.5343565
53.85,-0.4850335
53.9,-0.4950401
53.95,-0.4561216
54,-0.4173981
54.05,-0.4834097
54.1,-0.514245
54.15,-0.5121556
54.2,-0.4245532
54.25,-0.3633528
54.3,-0.3451411
54.35,-0.2632578
54.4,-0.2819586
54.45,-0.320917
54.5,-0.2854694
54.55,-0.2614259
54.6,-0.2106253
54.65,-0.1982809
54.7,-0.2442843
54.75,-0.2117625
54.8,-0.2178107
54.85,-0.2980403
54.9,-0.3043935
54.95,-0.2956836
55,-0.1040632
55.05,8.624787E-02
55.1,0.2052321
55.15,0.2121857
55.2,0.1537144
55.25,9.156384E-02
55.3,0.5295666
55.35,3.516098
55.4,13.62979
55.45,38.12189
55.5,86.6424
55.55,165.7568
55.6,274.0945
55.65,395.186
55.7,503.1472
55.75,565.3535
55.8,561.5094
55.85,492.4087
55.9,380.2812
55.95,257.0842
56,152.2936
56.05,80.87369
56.1,42.26804
56.15,25.12451
56.2,19.15122
56.25,16.71412
56.3,14.53557
56.35,12.09224
56.4,10.12994
56.45,8.542206
56.5,7.020161
56.55,5.819498
56.6,5.049054
56.65,4.47239
56.7,3.927656
56.75,3.470944
56.8,3.182509
56.85,2.863811
56.9,2.466837
56.95,2.112532
57,1.74436
57.05,1.392025
57.1,1.096901
57.15,0.929437
57.2,0.9234344
57.25,0.8292224
57.3,0.6463423
57.35,0.4867937
57.4,0.3755313
57.45,0.2468044
57.5,6.227683E-02
57.55,-0.1157375
57.6,-0.2247861
57.65,-0.278172
57.7,-0.2958999
57.75,-0.2792023
57.8,-0.2655679
57.85,-0.2990085
57.9,-0.4013628
57.95,-0.5107646
58,-0.4882093
58.05,-0.4134815
58.1,-0.4282718
58.15,-0.4666668
58.2,-0.455018
58.25,-0.4439735
58.3,-0.4426563
58.35,-0.4228437
58.4,-0.3729584
58.45,-0.363212
58.5,-0.4672937
58.55,-0.4764573
58.6,-0.4191272
58.65,-0.3814183
58.7,-0.3690027
58.75,-0.377845
58.8,-0.3972273
58.85,-0.5405653
58.9,-0.7558169
58.95,-0.8136044
59,-0.7220119
59.05,-0.5890448
59.1,-0.5115525
59.15,-0.445053
59.2,-0.4990491
59.25,-0.6807138
59.3,-0.723791
59.35,-0.7034162
59.4,-0.6709947
59.45,-0.750299
59.5,-0.8468206
59.55,-0.7599141
59.6,-0.7586176
59.65,-0.6717358
59.7,-0.5487449
59.75,-0.4730304
59.8,-0.3650023
59.85,-0.3927376
59.9,-0.372066
59.95,-0.4039955
60,-0.1492061
60.05,1.692521
60.1,8.406425
60.15,25.96759
60.2,62.63965
60.25,127.3527
60.3,223.5319
60.35,342.099
60.4,464.1013
60.45,561.1801
60.5,606.7048
60.55,587.6413
60.6,510.1818
60.65,397.3719
60.7,278.4818
60.75,178.1539
60.8,108.6131
60.85,68.03202
60.9,47.73553
60.95,38.23016
61,32.56248
61.05,28.33178
61.1,24.76025
61.15,21.79923
61.2,19.39364
61.25,17.57327
61.3,15.99223
61.35,14.38066
61.4,12.65008
61.45,10.87513
61.5,9.043124
61.55,7.443004
61.6,6.195295
61.65,5.32445
61.7,4.66048
61.75,4.061419
61.8,3.587527
61.85,3.185258
61.9,2.804724
61.95,2.492872
62,2.097706
62.05,1.755202
62.1,1.337466
62.15,0.9889686
62.2,0.7256981
62.25,0.4573355
62.3,0.2368877
62.35,2.940289E-02
62.4,-0.2763385
62.45,-0.4629119
62.5,-0.6309066
62.55,-0.6670964
62.6,-0.6428467
62.65,-0.6192734
62.7,-0.7233088
62.75,-0.966515
62.8,-1.185474
62.85,-1.291654
62.9,-1.376032
62.95,-1.430631
63,-1.407554
63.05,-1.386125
63.1,-1.460494
63.15,-1.523948
63.2,-1.45957
63.25,-1.379131
63.3,-1.381983
63.35,-1.443272
63.4,-1.37369
63.45,-1.390292
63.5,-1.414523
63.55,-1.371021
63.6,-1.221733
63.65,-1.240995
63.7,-1.274192
63.75,-1.2464
63.8,-1.21962
63.85,-1.265782
63.9,-1.322419
63.95,-1.471597
64,-1.492214
64.05,-1.544526
64.1,-1.476411
64.15,-1.384799
64.2,-1.364966
64.25,-1.306138
64.3,-1.332109
64.35,-1.366544
64.4,-1.308595
64.45,-1.375133
64.5,-1.427147
64.55,-1.438812
64.6,-1.411011
64.65,-1.407163
64.7,-1.470441
64.75,-1.578226
64.8,-1.720409
64.85,-1.858852
64.9,-1.846272
64.95,-1.807396
65,-1.735739
65.05,-1.664506
65.1,-1.646913
65.15,-1.705381
65.2,-1.76952
65.25,-1.800723
65.3,-1.766645
65.35,-1.768753
65.4,-1.752936
65.45,-1.735739
65.5,-1.755224
65.55,-1.794475
65.6,-1.843928
65.65,-1.907776
65.7,-1.982231
65.75,-2.082418
65.8,-2.120878
65.85,-2.114743
65.9,-2.064516
65.95,-1.992225
66,-2.00418
66.05,-2.026589
66.1,-1.956476
66.15,-1.886658
66.2,-1.804117
66.25,-1.76606
66.3,-1.718631
66.35,-1.770361
66.4,-1.815071
66.45,-1.749736
66.5,-1.766868
66.55,-1.823825
66.6,-1.799637
66.65,-1.783335
66.7,-1.736477
66.75,-1.76573
66.8,-1.725044
66.85,-1.753297
66.9,-1.814661
66.95,-1.791311
67,-1.704028
67.05,-1.812296
67.1,-1.792808
67.15,-1.821958
67.2,-1.785136
67.25,-1.797222
67.3,-1.837269
67.35,-1.82353
67.4,-1.845484
67.45,-1.971298
67.5,-1.896697
67.55,-1.955934
67.6,-2.009453
67.65,-2.037294
67.7,-1.980466
67.75,-1.817635
67.8,-1.877355
67.85,-1.973776
67.9,-1.932401
67.95,-2.03201
68,-2.187315
68.05,-2.240084
68.1,-2.26377
68.15,-2.285649
68.2,-2.283248
68.25,-2.207868
68.3,-2.113457
68.35,-2.060553
68.4,-2.057001
68.45,-2.001874
68.5,-2.064153
68.55,-2.067038
68.6,-2.094802
68.65,-2.188952
68.7,-2.227206
68.75,-2.250083
68.8,-2.369267
68.85,-2.393685
68.9,-2.341452
68.95,-2.27007
69,-2.286638
69.05,-2.205133
69.1,-1.896357
69.15,-1.06411
69.2,1.349942
69.25,8.042761
69.3,24.475
69.35,58.22005
69.4,116.7165
69.45,203.8236
69.5,315.7468
69.55,440.0042
69.6,557.1341
69.65,644.7154
69.7,686.7679
69.75,676.0148
69.8,615.6548
69.85,519.2701
69.9,404.5779
69.95,292.0378
70,197.2902
70.05,127.7276
70.1,83.9238
70.15,59.32919
70.2,46.30713
70.25,38.67097
70.3,32.7465
70.35,28.02872
70.4,24.0455
70.45,20.93006
70.5,18.83172
70.55,17.1388
70.6,15.70018
70.65,14.37739
70.7,12.7752
70.75,11.12462
70.8,9.668477
70.85,8.206317
70.9,6.837612
70.95,5.649163
71,4.875623
71.05,4.266893
71.1,3.99667
71.15,3.657377
71.2,3.041903
71.25,2.449691
71.3,2.123443
71.35,1.879093
71.4,1.692099
71.45,1.620439
71.5,1.625854
71.55,1.336875
71.6,0.9557815
71.65,0.6632406
71.7,0.2571418
71.75,-5.228742E-02
71.8,-0.2598551
71.85,-0.3381069
71.9,-0.4622998
71.95,-0.6803235
72,-0.8006917
72.05,-0.9074579
72.1,-1.052679
72.15,-1.252397
72.2,-1.521102
72.25,-1.593813
72.3,-1.608864
72.35,-1.615179
72.4,-1.681401
72.45,-1.72244
72.5,-1.693227
72.55,-1.695788
72.6,-1.537158
72.65,-1.347988
72.7,-1.373458
72.75,-1.508844
72.8,-1.684786
72.85,-1.701072
72.9,-1.738236
72.95,-1.74431
73,-1.725695
73.05,-1.754451
73.1,-1.768427
73.15,-1.722601
73.2,-1.679737
73.25,-1.70987
73.3,-1.843288
73.35,-1.978346
73.4,-2.0598
73.45,-2.108196
73.5,-2.036533
73.55,-1.925771
73.6,-1.93595
73.65,-2.022609
73.7,-2.131271
73.75,-2.248848
73.8,-2.26617
73.85,-2.249852
73.9,-2.229446
73.95,-2.30815
74,-2.470558
74.05,-2.589008
74.1,-2.567347
74.15,-2.386051
74.2,-2.222411
74.25,-2.114028
74.3,-2.031133
74.35,-2.050872
74.4,-2.142624
74.45,-2.202418
74.5,-2.244353
74.55,-2.305352
74.6,-2.360264
74.65,-2.3472
74.7,-2.289154
74.75,-2.226356
74.8,-2.220292
74.85,-2.232627
74.9,-2.203094
74.95,-2.134655
75,-2.146888
75.05,-2.040073
75.1,-2.029674
75.15,-2.097766
75.2,-2.068827
75.25,-1.955392
75.3,-1.898478
75.35,-1.978089
75.4,-2.066613
75.45,-2.065485
75.5,-2.138604
75.55,-2.052546
75.6,-1.878654
75.65,-1.784851
75.7,-1.77183
75.75,-1.809076
75.8,-1.753179
75.85,-1.786011
75.9,-1.893238
75.95,-2.00545
76,-2.044966
76.05,-2.049038
76.1,-2.0844
76.15,-2.005959
76.2,-1.831443
76.25,-1.881633
76.3,-1.917465
76.35,-1.981758
76.4,-1.998531
76.45,-2.004245
76.5,-1.888928
76.55,-1.831481
76.6,-1.844552
76.65,-1.804174
76.7,-1.716633
76.75,-1.777934
76.8,-1.796831
76.85,-1.980906
76.9,-2.096025
76.95,-2.17995
77,-2.110392
77.05,-1.815957
77.1,-0.8003101
77.15,1.996897
77.2,8.972736
77.25,24.00977
77.3,52.45437
77.35,99.20734
77.4,168.5486
77.45,261.1524
77.5,371.0896
77.55,484.9769
77.6,587.9477
77.65,666.5955
77.7,710.0696
77.75,713.7379
77.8,677.6494
77.85,607.2946
77.9,513.1506
77.95,408.5987
78,308.3753
78.05,223.3417
78.1,158.561
78.15,113.5182
78.2,83.65886
78.25,64.66354
78.3,52.51125
78.35,44.00962
78.4,37.83114
78.45,33.19282
78.5,29.31522
78.55,25.81641
78.6,22.86045
78.65,20.35594
78.7,17.98896
78.75,15.87916
78.8,14.02167
78.85,12.3601
78.9,10.74509
78.95,9.310246
79,8.098184
79.05,6.98966
79.1,6.14455
79.15,5.41697
79.2,4.700605
79.25,4.237062
79.3,3.802984
79.35,3.276954
79.4,3.108801
79.45,2.853457
79.5,2.528693
79.55,2.110998
79.6,1.869147
79.65,1.529242
79.7,1.066092
79.75,0.6717728
79.8,0.5546964
79.85,0.3623647
79.9,0.304094
79.95,0.255485
80,0.3098581
80.05,4.019789E-02
80.1,-8.018541E-02
80.15,-0.1865845
80.2,-0.2292428
80.25,-0.3263852
80.3,-0.3081754
80.35,-0.2558025
80.4,-0.3800974
80.45,-0.5033441
80.5,-0.5988964
80.55,-0.7219713
80.6,-0.7361377
80.65,-0.7256311
80.7,-0.6709085
80.75,-0.7470423
80.8,-0.83288
80.85,-0.9153481
80.9,-1.051535
80.95,-1.031369
81,-1.055837
81.05,-1.055104
81.1,-1.018696
81.15,-0.9697542
81.2,-0.9372718
81.25,-0.9076561
81.3,-0.9448099
81.35,-0.9782205
81.4,-1.088425
81.45,-1.161007
81.5,-1.214516
81.55,-1.303465
81.6,-1.345882
81.65,-1.276708
81.7,-1.193356
81.75,-1.099642
81.8,-1.089567
81.85,-1.175191
81.9,-1.331424
81.95,-1.469429
82,-1.458617
82.05,-1.415521
82.1,-1.404914
82.15,-1.39599
82.2,-1.45023
82.25,-1.510199
82.3,-1.541425
82.35,-1.538207
82.4,-1.521161
82.45,-1.49218
82.5,-1.434472
82.55,-1.344652
82.6,-1.225712
82.65,-1.169035
82.7,-0.9658456
82.75,1.304499E-02
82.8,2.862816
82.85,9.581437
82.9,22.09516
82.95,43.49378
83,79.32864
83.05,132.5628
83.1,204.6048
83.15,293.6012
83.2,392.8669
83.25,490.1942
83.3,575.1703
83.35,639.1355
83.4,673.8108
83.45,676.5803
83.5,648.8899
83.55,596.6243
83.6,524.8821
83.65,441.1522
83.7,358.4552
83.75,282.6464
83.8,218.0805
83.85,169.928
83.9,134.555
83.95,109.9447
84,92.20493
84.05,79.44608
84.1,70.44395
84.15,62.62563
84.2,56.50088
84.25,51.38947
84.3,45.96447
84.35,41.49978
84.4,37.51346
84.45,34.20404
84.5,31.32993
84.55,28.57536
84.6,26.00996
84.65,23.52365
84.7,20.98643
84.75,18.65223
84.8,16.70971
84.85,15.25127
84.9,13.78232
84.95,12.51729
85,11.6683
85.05,10.94145
85.1,10.14058
85.15,9.250099
85.2,8.31665
85.25,7.269403
85.3,6.218153
85.35,5.410347
85.4,5.191678
85.45,5.099642
85.5,4.808455
85.55,4.427515
85.6,3.919051
85.65,3.249194
85.7,2.648905
85.75,2.191291
85.8,1.814293
85.85,1.50296
85.9,1.234799
85.95,1.033074
86,0.9620262
86.05,0.9159789
86.1,0.7687325
86.15,0.6771511
86.2,0.6650065
86.25,0.5638679
86.3,0.326724
86.35,9.970394E-02
86.4,-0.1219249
86.45,-0.3748839
86.5,-0.4988495
86.55,-0.4479564
86.6,-0.3625943
86.65,-0.2674545
86.7,-0.1892511
86.75,-0.1961412
86.8,-0.318322
86.85,-0.5481853
86.9,-0.7734992
86.95,-1.0251
87,-1.125671
87.05,-1.115239
87.1,-0.9510577
87.15,-0.7792974
87.2,-0.691779
87.25,-0.5280207
87.3,6.624392E-02
87.35,1.399212
87.4,5.036664
87.45,12.4955
87.5,26.30308
87.55,50.2607
87.6,87.61117
87.65,140.4989
87.7,212.047
87.75,299.23
87.8,396.1024
87.85,498.3844
87.9,594.8419
87.95,674.5831
88,731.5421
88.05,762.1358
88.1,765.5334
88.15,741.5911
88.2,692.5746
88.25,624.3677
88.3,544.0554
88.35,459.1925
88.4,377.3051
88.45,301.4511
88.5,237.0286
88.55,185.697
88.6,146.1551
88.65,117.9267
88.7,98.36859
88.75,83.18378
88.8,71.28491
88.85,60.83508
88.9,52.19392
88.95,45.12631
89,38.46472
89.05,32.47898
89.1,27.86724
89.15,24.21754
89.2,20.9451
89.25,18.0665
89.3,15.87875
89.35,14.10965
89.4,12.32309
89.45,10.88877
89.5,9.636652
89.55,8.445054
89.6,7.708069
89.65,6.954482
89.7,6.049335
89.75,5.072403
89.8,4.30908
89.85,3.64448
89.9,3.170827
89.95,2.996138
90,2.879727
90.05,2.584072
90.1,2.256599
90.15,2.007524
90.2,1.800782
90.25,1.532339
90.3,1.467017
90.35,1.786128
90.4,3.006761
90.45,6.237912
90.5,12.82789
90.55,24.24353
90.6,43.35578
90.65,73.61842
90.7,119.1059
90.75,180.5746
90.8,258.5991
90.85,350.1527
90.9,447.0887
90.95,540.9086
91,625.846
91.05,694.5916
91.1,742.5347
91.15,762.3002
91.2,754.2643
91.25,720.4257
91.3,664.4373
91.35,594.2225
91.4,516.1859
91.45,437.2347
91.5,361.394
91.55,291.3498
91.6,232.3609
91.65,184.9624
91.7,148.013
91.75,120.8756
91.8,101.7332
91.85,88.00268
91.9,75.5346
91.95,64.3719
92,54.62033
92.05,46.37726
92.1,39.88279
92.15,34.94773
92.2,31.70424
92.25,28.53176
92.3,25.56709
92.35,22.65442
92.4,20.07385
92.45,17.69438
92.5,15.42453
92.55,13.37915
92.6,12.03624
92.65,11.03008
92.7,10.07535
92.75,8.870401
92.8,8.248514
92.85,7.985886
92.9,7.330796
92.95,6.6152
93,5.974993
93.05,5.572591
93.1,5.200078
93.15,4.977626
93.2,4.826917
93.25,4.169796
93.3,3.376491
93.35,2.929505
93.4,2.69335
93.45,2.510916
93.5,2.273578
93.55,2.05791
93.6,1.724064
93.65,1.360322
93.7,0.9962086
93.75,0.7227495
93.8,0.4330394
93.85,0.2568483
93.9,0.2185486
93.95,0.3422719
94,0.2754352
94.05,0.1091916
94.1,-0.1554707
94.15,-0.4379838
94.2,-0.6645836
94.25,-0.7221947
94.3,-0.3471227
94.35,0.6274956
94.4,2.374995
94.45,5.573636
94.5,11.38106
94.55,21.52075
94.6,38.35706
94.65,63.27996
94.7,98.43345
94.75,145.8621
94.8,203.7363
94.85,272.5166
94.9,348.3301
94.95,426.9852
95,505.1576
95.05,575.446
95.1,635.7336
95.15,681.069
95.2,708.2802
95.25,719.1619
95.3,711.6707
95.35,688.9921
95.4,652.1308
95.45,600.679
95.5,541.1111
95.55,476.7193
95.6,413.7545
95.65,356.5745
95.7,305.3328
95.75,261.3325
95.8,221.4727
95.85,184.4952
95.9,154.1536
95.95,128.8641
96,107.6953
96.05,90.6589
96.1,77.22942
96.15,66.85564
96.2,57.30151
96.25,49.06364
96.3,43.00832
96.35,36.96856
96.4,31.46322
96.45,27.54271
96.5,24.58536
96.55,21.92466
96.6,19.18742
96.65,16.79666
96.7,15.23761
96.75,13.50119
96.8,11.72489
96.85,10.44836
96.9,9.313956
96.95,8.725203
97,7.994019
97.05,7.362945
97.1,6.570572
97.15,5.745791
97.2,4.733606
97.25,4.301482
97.3,4.13945
97.35,4.085762
97.4,3.575681
97.45,3.016193
97.5,2.463548
97.55,1.894306
97.6,1.227112
97.65,0.9643562
97.7,0.6660743
97.75,0.5407814
97.8,0.6082141
97.85,0.7721522
97.9,1.103953
97.95,1.429702
98,1.640177
98.05,1.595564
98.1,1.422466
98.15,1.166849
98.2,0.6644151
98.25,0.2783037
98.3,0.1436202
98.35,0.1194095
98.4,0.2449033
98.45,0.577468
98.5,0.7938037
98.55,0.7241597
98.6,0.718461
98.65,0.6830683
98.7,0.5817151
98.75,0.5148784
98.8,0.6492954
98.85,0.7865763
98.9,0.7077849
98.95,0.6884553
99,0.4287842
99.05,9.873181E-02
99.1,-1.365028E-02
99.15,5.866124E-02
99.2,0.2821177
99.25,0.5301033
99.3,0.7391643
99.35,0.6179401
99.4,0.317738
99.45,0.2100503
99.5,0.1009679
99.55,-6.660974E-02
99.6,-4.086536E-02
99.65,0.065235
99.7,0.1644562
99.75,0.3515911
99.8,0.3376266
99.85,4.847394E-02
99.9,-0.1622992
99.95,-0.2578126
100,-0.2984986
100.05,-0.1905805
100.1,0.1106126
100.15,0.1206117
100.2,-0.3406439
100.25,-0.3111606
100.3,-0.1499676
100.35,-4.514686E-02
100.4,7.055885E-02
100.45,0.2639409
100.5,0.530493
100.55,2.079448
100.6,5.631121
100.65,13.32959
100.7,25.15251
100.75,45.60159
100.8,75.48454
100.85,116.8707
100.9,174.8286
100.95,245.9106
101,326.9019
101.05,424.7939
101.1,528.1776
101.15,629.5846
101.2,719.64
101.25,798.9368
101.3,859.8859
101.35,900.6091
101.4,921.0703
101.45,920.3577
101.5,891.189
101.55,838.4719
101.6,770.9715
101.65,697.0103
101.7,620.3217
101.75,544.6673
101.8,470.7278
101.85,398.1665
101.9,330.3747
101.95,269.5414
102,219.2548
102.05,179.0809
102.1,147.4846
102.15,121.4934
102.2,101.2798
102.25,83.87782
102.3,68.71033
102.35,55.26412
102.4,45.16357
102.45,37.54865
102.5,31.45962
102.55,27.2441
102.6,24.333
102.65,21.27703
102.7,19.07858
102.75,17.45806
102.8,15.85794
102.85,14.06533
102.9,12.36807
102.95,10.73374
103,8.931505
103.05,7.505334
103.1,6.577939
103.15,5.774053
103.2,5.658412
103.25,5.591928
103.3,5.085823
103.35,4.268935
103.4,3.708668
103.45,3.295892
103.5,3.444158
103.55,4.051325
103.6,4.996423
103.65,6.102396
103.7,7.710935
103.75,11.26526
103.8,17.18371
103.85,28.38837
103.9,47.62512
103.95,77.2946
104,118.2029
104.05,173.2052
104.1,246.0263
104.15,328.2581
104.2,418.063
104.25,516.8275
104.3,615.5314
104.35,709.645
104.4,793.993
104.45,859.8514
104.5,903.3397
104.55,921.4023
104.6,918.645
104.65,898.098
104.7,866.749
104.75,827.2692
104.8,764.9851
104.85,687.5895
104.9,608.8072
104.95,527.8956
105,450.0284
105.05,380.4835
105.1,322.3857
105.15,267.7599
105.2,217.1094
105.25,177.2537
105.3,148.2331
105.35,122.4481
105.4,102.6773
105.45,85.91064
105.5,71.81126
105.55,59.23869
105.6,50.00314
105.65,43.62439
105.7,39.69156
105.75,35.81873
105.8,32.98135
105.85,28.79852
105.9,25.02898
105.95,22.89243
106,21.61529
106.05,21.22671
106.1,21.31638
106.15,21.92637
106.2,21.48681
106.25,19.38053
106.3,17.21642
106.35,15.25615
106.4,13.6037
106.45,12.601
106.5,12.04419
106.55,12.13713
106.6,11.8672
106.65,11.37164
106.7,11.34433
106.75,11.30191
106.8,11.00835
106.85,10.38004
106.9,9.880514
106.95,9.31457
107,8.115092
107.05,7.361126
107.1,7.500375
107.15,7.731723
107.2,7.65424
107.25,7.471281
107.3,7.714848
107.35,8.187892
107.4,8.767747
107.45,9.119878
107.5,8.637086
107.55,7.747983
107.6,6.930679
107.65,6.426973
107.7,6.404154
107.75,6.693336
107.8,7.076313
107.85,7.473192
107.9,8.166544
107.95,8.413217
108,8.704728
108.05,8.40343
108.1,7.436913
108.15,6.761307
108.2,6.604725
108.25,6.640784
108.3,6.798347
108.35,6.798482
108.4,6.386347
108.45,4.888188
108.5,4.221526
108.55,4.445838
108.6,5.315073
108.65,6.465826
108.7,8.378457
108.75,13.09238
108.8,20.19606
108.85,29.81081
108.9,44.73957
108.95,67.46017
109,95.26352
109.05,129.8918
109.1,172.3099
109.15,225.1134
109.2,284.6108
109.25,354.9612
109.3,434.8754
109.35,510.0909
109.4,569.6324
109.45,626.983
109.5,678.9554
109.55,717.7023
109.6,744.7853
109.65,757.1908
109.7,752.1821
109.75,727.0085
109.8,695.2061
109.85,661.9182
109.9,621.1381
109.95,575.7483
110,524.7048
110.05,469.5586
110.1,415.4182
110.15,363.6931
110.2,319.2571
110.25,280.7128
110.3,246.095
110.35,215.0934
110.4,184.6121
110.45,156.3515
110.5,131.281
110.55,108.5427
110.6,90.94785
110.65,76.972
110.7,66.47097
110.75,59.5354
110.8,53.59652
110.85,49.21493
110.9,45.3261
110.95,41.08026
111,37.22604
111.05,33.45042
111.1,29.48445
111.15,24.94547
111.2,21.54878
111.25,20.17567
111.3,19.50916
111.35,18.11033
111.4,16.43605
111.45,14.75983
111.5,12.59902
111.55,10.94681
111.6,9.836443
111.65,8.177703
111.7,5.878836
111.75,4.27641
111.8,4.679621
111.85,5.007245
111.9,5.521155
111.95,6.590104
112,8.3911
112.05,11.22025
112.1,14.47445
112.15,19.3463
112.2,25.87617
112.25,32.42974
112.3,39.57283
112.35,47.30032
112.4,57.99708
112.45,68.21891
112.5,78.40335
112.55,90.30534
112.6,101.4006
112.65,110.5085
112.7,118.741
112.75,127.6514
112.8,134.0289
112.85,138.2833
112.9,146.3032
112.95,152.9809
113,154.0869
113.05,146.222
113.1,135.5181
113.15,121.9352
113.2,109.6476
113.25,99.93747
113.3,91.10611
113.35,81.53492
113.4,71.48279
113.45,61.02609
113.5,54.25042
113.55,47.33475
113.6,40.37284
113.65,32.6356
113.7,26.06701
113.75,21.4632
113.8,17.81458
113.85,15.13839
113.9,13.22406
113.95,10.55411
114,9.010132
114.05,8.709179
114.1,8.237473
114.15,8.089153
114.2,7.571771
114.25,6.081192
114.3,4.792067
114.35,4.050199
114.4,3.425978
114.45,2.740896
114.5,2.450721
114.55,2.112636
114.6,1.715824
114.65,1.545956
114.7,1.158941
114.75,0.4943859
114.8,-0.0967171
114.85,-0.3769302
114.9,-0.3261674
114.95,-2.261686E-02
115,0.6624556
115.05,0.7554885
115.1,0.2817355
115.15,5.754546E-02
115.2,-0.3981319
115.25,-0.9352807
115.3,-0.9639466
115.35,-0.7813889
115.4,-0.7158379
115.45,-0.8904334
115.5,-0.7876554
115.55,-0.5122528
115.6,-0.5382386
115.65,-0.2674147
115.7,0.7136305
115.75,1.039404
115.8,0.3175476
115.85,-0.6402942
115.9,-1.105634
115.95,-1.700714
116,-2.162899
116.05,-1.869852
116.1,-1.374212
116.15,-1.645601
116.2,-2.065075
116.25,-2.276456
116.3,-2.699065
116.35,-3.248561
116.4,-3.52635
116.45,-3.30243
116.5,-3.113675
116.55,-3.246092
116.6,-3.604849
116.65,-3.789235
116.7,-3.605808
116.75,-3.268623
116.8,-3.154704
116.85,-3.17259
116.9,-3.628945
116.95,-3.949185
117,-4.143072
117.05,-3.692674
117.1,-3.43298
117.15,-3.552581
117.2,-3.863111
117.25,-4.201433
117.3,-4.229897
117.35,-4.157172
117.4,-4.139004
117.45,-4.191022
117.5,-4.548918
117.55,-4.724917
117.6,-4.457398
117.65,-3.746955
117.7,-3.391988
117.75,-3.344698
117.8,-3.280852
117.85,-3.469159
117.9,-3.828413
117.95,-4.211838
118,-4.647583
118.05,-5.129193
118.1,-5.489831
118.15,-5.390737
118.2,-4.696364
118.25,-4.218107
118.3,-4.108058
118.35,-4.334599
118.4,-4.589517
118.45,-4.566677
118.5,-4.367682
118.55,-4.22644
118.6,-4.258111
118.65,-4.642975
118.7,-5.127032
118.75,-5.291759
118.8,-5.040013
118.85,-4.716676
118.9,-4.449839
118.95,-4.397276
119,-4.518247
119.05,-4.603237
119.1,-4.552739
119.15,-4.440676
119.2,-4.533692
119.25,-4.735936
119.3,-4.820442
119.35,-4.793757
119.4,-4.708108
119.45,-4.629181
119.5,-4.595136
119.55,-4.695043
119.6,-4.72427
119.65,-4.548979
119.7,-4.332533
119.75,-4.287846
119.8,-4.535448
119.85,-4.836201
119.9,-4.843022
119.95,-4.587331
120,-4.392766
120.05,-4.344632
120.1,-4.40127
120.15,-4.558316
120.2,-4.804838
120.25,-4.81211
120.3,-4.390199
120.35,-4.109739
120.4,-3.896183
120.45,-3.846356
120.5,-4.176723
120.55,-4.72936
120.6,-5.185134
120.65,-5.364081
120.7,-5.226016
120.75,-4.677934
120.8,-4.078595
120.85,-4.122939
120.9,-4.489945
120.95,-4.88531
121,-5.202421
121.05,-5.392283
121.1,-5.368841
121.15,-5.303154
121.2,-5.434017
121.25,-5.645493
121.3,-5.706171
121.35,-5.469545
121.4,-5.270786
121.45,-5.13424
121.5,-5.116799
121.55,-5.158761
121.6,-5.114151
121.65,-5.20676
121.7,-5.260909
121.75,-5.24438
121.8,-5.251503
121.85,-5.209128
121.9,-5.093603
121.95,-4.951115
122,-4.639485
122.05,-4.512553
122.1,-4.544418
122.15,-4.679003
122.2,-5.039718
122.25,-5.189918
122.3,-5.235562
122.35,-5.272754
122.4,-5.265476
122.45,-5.390269
122.5,-5.365587
122.55,-5.219463
122.6,-5.194952
122.65,-5.067104
122.7,-5.146063
122.75,-5.268438
122.8,-5.410149
122.85,-5.465553
122.9,-5.413805
122.95,-5.401448
123,-5.290436
123.05,-5.106921
123.1,-5.056806
123.15,-5.180638
123.2,-5.327419
123.25,-5.466419
123.3,-5.668815
123.35,-5.736084
123.4,-5.73326
123.45,-5.787112
123.5,-5.789633
123.55,-5.797968
123.6,-5.700037
123.65,-5.499113
123.7,-5.276622
123.75,-5.068324
123.8,-5.124223
123.85,-5.388048
123.9,-5.642836
123.95,-5.900389
124,-5.984536
124.05,-5.783458
124.1,-5.567845
124.15,-5.43613
124.2,-5.514664
124.25,-5.697824
124.3,-5.748343
124.35,-5.717351
124.4,-5.741354
124.45,-5.469414
124.5,-5.292931
124.55,-5.134743
124.6,-5.187162
124.65,-5.318004
124.7,-5.443633
124.75,-5.610574
124.8,-5.710721
124.85,-5.63212
124.9,-5.720555
124.95,-5.716897
125,-5.755523
125.05,-5.615195
125.1,-5.21174
125.15,-4.93611
125.2,-4.948546
125.25,-5.292975
125.3,-5.634143
125.35,-5.675539
125.4,-5.70839
125.45,-5.613448
125.5,-5.566653
125.55,-5.729553
125.6,-5.966122
125.65,-5.960903
125.7,-5.778399
125.75,-5.593989
125.8,-5.654762
125.85,-5.684571
125.9,-5.809832
125.95,-5.948861
126,-5.978014
126.05,-5.830501
126.1,-5.719466
126.15,-5.678868
126.2,-5.722585
126.25,-5.758482
126.3,-5.933481
126.35,-6.086172
126.4,-6.234576
126.45,-6.329836
126.5,-6.136156
126.55,-5.744085
126.6,-5.437588
126.65,-5.11814
126.7,-4.887425
126.75,-4.97142
126.8,-5.22862
126.85,-5.529981
126.9,-5.823247
126.95,-6.120523
127,-6.294726
127.05,-6.251577
127.1,-6.223704
127.15,-6.258862
127.2,-6.211057
127.25,-6.21336
127.3,-6.18873
127.35,-6.126155
127.4,-6.126368
127.45,-6.131204
127.5,-6.141912
127.55,-6.117983
127.6,-6.049608
127.65,-5.998389
127.7,-5.953365
127.75,-5.966266
127.8,-5.972836
127.85,-5.838718
127.9,-5.69082
127.95,-5.570647
128,-5.562653
128.05,-5.665118
128.1,-5.855473
128.15,-6.013648
128.2,-6.064748
128.25,-6.061694
128.3,-6.004648
128.35,-5.897834
128.4,-5.87371
128.45,-5.90685
128.5,-5.957407
128.55,-6.01173
128.6,-6.035471
128.65,-6.04608
128.7,-5.887186
128.75,-5.936429
128.8,-6.056964
128.85,-6.152392
128.9,-6.277565
128.95,-6.208433
129,-6.085277
129.05,-6.064327
129.1,-6.056069
129.15,-6.244357
129.2,-6.376636
129.25,-6.479632
129.3,-6.416266
129.35,-6.216043
129.4,-6.147285
129.45,-6.117725
129.5,-6.112942
129.55,-6.274583
129.6,-6.280743
129.65,-6.296212
129.7,-6.150465
129.75,-6.091592
129.8,-6.193306
129.85,-6.390677
129.9,-6.449198
129.95,-6.394026
130,-6.241891
130.05,-6.110664
130.1,-6.133247
130.15,-6.192202
130.2,-6.347155
130.25,-6.345999
130.3,-6.146732
130.35,-6.047197
130.4,-6.169959
130.45,-6.282948
130.5,-6.447833
130.55,-6.400339
130.6,-6.273482
130.65,-6.063977
130.7,-6.00774
130.75,-6.171481
130.8,-6.324805
130.85,-6.374495
130.9,-6.397704
130.95,-6.366138
131,-6.348184
131.05,-6.260863
131.1,-6.211293
131.15,-6.197769
131.2,-6.165419
131.25,-6.137024
131.3,-6.187127
131.35,-6.3166
131.4,-6.393374
131.45,-6.42232
131.5,-6.502086
131.55,-6.510819
131.6,-6.411975
131.65,-6.320914
131.7,-6.237364
131.75,-6.173306
131.8,-6.135751
131.85,-6.197988
131.9,-6.331796
131.95,-6.424562
132,-6.57621
132.05,-6.72656
132.1,-6.745349
132.15,-6.719768
132.2,-6.704267
132.25,-6.739795
132.3,-6.802051
132.35,-6.903215
132.4,-6.8979
132.45,-6.719236
132.5,-6.541901
132.55,-6.383299
132.6,-6.322333
132.65,-6.47173
132.7,-6.659373
132.75,-6.7476
132.8,-6.771571
132.85,-6.847636
132.9,-6.8958
132.95,-6.752692
133,-6.767292
133.05,-6.823188
133.1,-6.710639
133.15,-6.695177
133.2,-6.597398
133.25,-6.47288
133.3,-6.312054
133.35,-6.255806
133.4,-6.22757
133.45,-6.328739
133.5,-6.416531
133.55,-6.503386
133.6,-6.383323
133.65,-6.369833
133.7,-6.302609
133.75,-6.314008
133.8,-6.305147
133.85,-6.364577
133.9,-6.27592
133.95,-6.219785
134,-6.281685
134.05,-6.504092
134.1,-6.657463
134.15,-6.817626
134.2,-6.800646
134.25,-6.725025
134.3,-6.676405
134.35,-6.64518
134.4,-6.764362
134.45,-6.830953
134.5,-6.760473
134.55,-6.686631
134.6,-6.613564
134.65,-6.552797
134.7,-6.605491
134.75,-6.683083
134.8,-6.796627
134.85,-6.785651
134.9,-6.792959
134.95,-6.904006
135,-6.883157
135.05,-6.829825
135.1,-6.851896
135.15,-6.880675
135.2,-6.895007
135.25,-6.961428
135.3,-7.127855
135.35,-7.240994
135.4,-7.163096
135.45,-7.012802
135.5,-6.928833
135.55,-6.824844
135.6,-6.711846
135.65,-6.695558
135.7,-6.750978
135.75,-6.791308
135.8,-6.752131
135.85,-6.825784
135.9,-6.930343
135.95,-6.93052
136,-6.901499
136.05,-6.817882
136.1,-6.75147
136.15,-6.7052
136.2,-6.61801
136.25,-6.527635
136.3,-6.441599
136.35,-6.459
136.4,-6.484241
136.45,-6.529689
136.5,-6.615195
136.55,-6.625769
136.6,-6.51877
136.65,-6.488757
136.7,-6.545496
136.75,-6.538143
136.8,-6.51373
136.85,-6.535814
136.9,-6.588611
136.95,-6.631053
137,-6.704647
137.05,-6.799995
137.1,-6.773051
137.15,-6.776495
137.2,-6.841363
137.25,-6.90825
137.3,-6.977751
137.35,-6.892697
137.4,-6.866741
137.45,-6.830981
137.5,-6.821341
137.55,-6.928761
137.6,-6.888916
137.65,-6.89938
137.7,-6.901943
137.75,-6.90795
137.8,-6.942285
137.85,-7.130015
137.9,-7.136277
137.95,-7.174371
138,-7.213768
 
Alignment,On
