Data File Name,JAM,_JLC_High Sensitivity DNA Assay_DE24802700_2017-09-06_14-50-13.xad
Data File Path,C:\Users\jlchiniquy\Desktop\20171205_Nextera_library_size_to_loading_concentration_tool\JLChiniquy
Date Created,"Wednesday, September 06, 2017 9:50:13 PM"
Date Last Modified,"Thursday, November 16, 2017 8:08:48 PM"
Version Created,B.02.07.SI532
Version Last Modified,B.02.08.SI648
 
Assay Name,High Sensitivity DNA
Assay Path,C:\Program Files\Agilent\2100 bioanalyzer\2100 expert\assays\dsDNA
Assay Title,High Sensitivity DNA Assay
Assay Version,1.0
 
Number of Samples Run,11
 
Sample Name,Ladder
Number of Events,2121
 
Time,Value
32,0.0748291
32.05,0.0748291
32.1,0.0748291
32.15,0.0748291
32.2,0.0748291
32.25,0.0748291
32.3,0.0748291
32.35,0.0748291
32.4,0.0748291
32.45,0.0748291
32.5,0.0748291
32.55,0.0748291
32.6,0.0748291
32.65,0.0748291
32.7,0.0748291
32.75,0.0748291
32.8,0.0748291
32.85,0.0748291
32.9,0.0748291
32.95,0.0748291
33,0.0748291
33.05,0.0748291
33.1,0.0748291
33.15,0.0748291
33.2,0.0748291
33.25,0.0748291
33.3,0.0748291
33.35,0.0748291
33.4,0.0748291
33.45,0.0748291
33.5,0.0748291
33.55,0.0748291
33.6,0.0748291
33.65,0.0748291
33.7,5.407666E-02
33.75,-3.535488E-02
33.8,-3.335916E-02
33.85,-2.250517E-02
33.9,-2.536782E-02
33.95,-9.966133E-02
34,-0.1535469
34.05,-0.1492281
34.1,-7.229874E-02
34.15,0.1098753
34.2,0.1321849
34.25,0.1690623
34.3,0.1296562
34.35,4.562698E-02
34.4,-1.555154E-02
34.45,-2.381781E-02
34.5,-5.428415E-02
34.55,-6.736367E-02
34.6,-8.334162E-02
34.65,-0.1478765
34.7,-0.27687
34.75,-0.3919603
34.8,-0.4154267
34.85,-0.4662679
34.9,-0.5830176
34.95,-0.6331925
35,-0.5467454
35.05,-0.4253099
35.1,-0.4873828
35.15,-0.5357926
35.2,-0.5221722
35.25,-0.4972687
35.3,-0.4204109
35.35,-0.3340399
35.4,-0.3340825
35.45,-0.5084757
35.5,-0.6067474
35.55,-0.5839163
35.6,-0.4968525
35.65,-0.4128144
35.7,-0.3812021
35.75,-0.3672097
35.8,-0.3969024
35.85,-0.3375676
35.9,-0.2124746
35.95,-0.1380641
36,-9.942698E-02
36.05,-0.1460853
36.1,-0.1195869
36.15,-0.2246065
36.2,-0.1343047
36.25,-0.0803147
36.3,-0.1240354
36.35,-8.505506E-02
36.4,-0.1042286
36.45,-5.941094E-02
36.5,-4.693022E-02
36.55,-1.487868E-02
36.6,3.666787E-02
36.65,2.187072E-03
36.7,3.328704E-02
36.75,1.065176E-02
36.8,3.984459E-02
36.85,2.875371E-02
36.9,-6.972572E-02
36.95,-0.2071939
37,-0.2585674
37.05,-0.2089019
37.1,-0.1768012
37.15,-0.2235633
37.2,-0.2387696
37.25,-0.3041202
37.3,-0.3276735
37.35,-0.1944763
37.4,-0.1454346
37.45,-0.2574773
37.5,-0.4171981
37.55,-0.3299393
37.6,-0.3351412
37.65,-0.3831934
37.7,-0.3550722
37.75,-0.4087057
37.8,-0.4111734
37.85,-0.2982367
37.9,-0.1990654
37.95,-0.2502482
38,-0.3566895
38.05,-0.4155909
38.1,-0.4396912
38.15,-0.288405
38.2,-0.140234
38.25,-0.1169887
38.3,-0.1330582
38.35,-0.103059
38.4,-0.054683
38.45,0.0597887
38.5,0.1551172
38.55,0.1243355
38.6,2.34223E-03
38.65,-9.895691E-02
38.7,-0.1374006
38.75,-0.111385
38.8,-7.229486E-03
38.85,-2.207081E-02
38.9,-7.199474E-02
38.95,-3.356111E-02
39,-0.0730464
39.05,-1.710179E-02
39.1,3.971275E-02
39.15,1.441175E-02
39.2,-6.222092E-02
39.25,-6.598982E-02
39.3,-8.208271E-02
39.35,-0.1505239
39.4,-0.1565257
39.45,-0.2588736
39.5,-0.3090535
39.55,-0.3910226
39.6,-0.3192623
39.65,-0.3392328
39.7,-0.4123899
39.75,-0.3755504
39.8,-0.4208972
39.85,-0.4826851
39.9,-0.5041529
39.95,-0.5890696
40,-0.5811813
40.05,-0.647172
40.1,-0.5835524
40.15,-0.4461046
40.2,-0.3979112
40.25,-0.2979516
40.3,-0.4044409
40.35,-0.4140295
40.4,-0.4627309
40.45,-0.5220106
40.5,-0.4126731
40.55,-0.3726443
40.6,-0.3153009
40.65,-0.2167543
40.7,-0.1345836
40.75,-9.948631E-02
40.8,-9.699736E-02
40.85,-9.684616E-02
40.9,-7.494361E-02
40.95,-1.362455E-02
41,5.853266E-03
41.05,3.371221E-02
41.1,-6.973265E-03
41.15,-0.1207918
41.2,-0.2262057
41.25,-0.2744705
41.3,-0.2760141
41.35,-0.3523626
41.4,-0.3177904
41.45,-0.3667112
41.5,-0.4444142
41.55,-0.4662088
41.6,-0.4953741
41.65,-0.4355009
41.7,-0.3783581
41.75,-0.3587292
41.8,-0.3325461
41.85,-0.4433196
41.9,-0.431165
41.95,-0.4694773
42,-0.4078376
42.05,-0.3295168
42.1,-0.2727666
42.15,-0.1821696
42.2,-0.2176991
42.25,-0.3051474
42.3,-0.4000359
42.35,-0.4800038
42.4,-0.4340366
42.45,-0.2833257
42.5,0.4272162
42.55,2.197239
42.6,6.150189
42.65,13.93354
42.7,27.35741
42.75,47.31422
42.8,73.45612
42.85,102.7443
42.9,129.1428
42.95,146.4868
43,149.7275
43.05,136.5899
43.1,111.5563
43.15,81.413
43.2,53.0719
43.25,30.56506
43.3,15.66355
43.35,7.299805
43.4,3.138505
43.45,1.321204
43.5,0.7127478
43.55,0.5964502
43.6,0.4493699
43.65,0.3629524
43.7,0.2443741
43.75,0.2424541
43.8,0.2285918
43.85,0.3091869
43.9,0.2714647
43.95,0.1117447
44,1.602801E-02
44.05,5.357276E-02
44.1,0.103913
44.15,0.1080025
44.2,4.911238E-02
44.25,-7.589487E-02
44.3,-1.291818E-02
44.35,4.812312E-02
44.4,0.1838331
44.45,0.2552949
44.5,0.2068783
44.55,5.578593E-02
44.6,-3.510432E-02
44.65,0.1950305
44.7,0.3605963
44.75,0.4138463
44.8,0.4971908
44.85,0.9231648
44.9,2.635617
44.95,7.038705
45,16.5166
45.05,33.71738
45.1,61.81068
45.15,99.61525
45.2,143.1468
45.25,183.77
45.3,210.6407
45.35,216.2041
45.4,198.7783
45.45,163.1981
45.5,119.0288
45.55,76.80364
45.6,43.63408
45.65,21.90652
45.7,10.42873
45.75,6.034255
45.8,4.585715
45.85,4.036086
45.9,3.610104
45.95,3.224
46,2.829362
46.05,2.483983
46.1,2.245172
46.15,2.112217
46.2,2.056337
46.25,2.092247
46.3,2.045789
46.35,1.784701
46.4,1.381413
46.45,1.118639
46.5,0.9812851
46.55,0.8317412
46.6,0.7643242
46.65,0.7144035
46.7,0.6795436
46.75,0.6347379
46.8,0.6516718
46.85,0.6541514
46.9,0.6275812
46.95,0.5970841
47,0.4454456
47.05,0.331848
47.1,0.3440321
47.15,0.4559286
47.2,0.5537711
47.25,0.6560544
47.3,0.5911915
47.35,0.4086586
47.4,0.3283577
47.45,0.3223127
47.5,0.3587255
47.55,0.43771
47.6,0.5049285
47.65,0.5160441
47.7,0.5074726
47.75,0.5404664
47.8,0.5653971
47.85,0.580608
47.9,0.5813706
47.95,0.639078
48,0.6847488
48.05,0.6066308
48.1,0.5132205
48.15,0.5197917
48.2,0.5857178
48.25,0.642552
48.3,0.6722034
48.35,0.5793992
48.4,0.3441203
48.45,0.4092999
48.5,0.4804105
48.55,0.6070352
48.6,0.660731
48.65,0.6665049
48.7,0.5761898
48.75,0.4926586
48.8,0.422329
48.85,0.2808587
48.9,9.601762E-02
48.95,-1.357783E-02
49,4.731684E-02
49.05,5.351453E-02
49.1,5.004496E-02
49.15,0.1443993
49.2,0.2218929
49.25,2.915446E-02
49.3,8.072612E-02
49.35,0.1332851
49.4,0.1121781
49.45,7.023334E-02
49.5,0.1382768
49.55,0.15977
49.6,0.154315
49.65,0.2865323
49.7,0.3645931
49.75,0.4103247
49.8,0.4665022
49.85,0.4848246
49.9,0.4215348
49.95,0.3671829
50,0.2525467
50.05,0.2345442
50.1,0.3511698
50.15,0.4904592
50.2,0.5512816
50.25,0.5852928
50.3,0.6073263
50.35,0.5903116
50.4,0.5076781
50.45,0.4313853
50.5,0.3458951
50.55,0.3178878
50.6,0.5446929
50.65,2.008718
50.7,6.626502
50.75,17.34985
50.8,38.10801
50.85,71.89973
50.9,118.8347
50.95,174.4229
51,227.1608
51.05,263.1049
51.1,270.2879
51.15,245.9771
51.2,195.9146
51.25,137.0301
51.3,84.19917
51.35,45.93029
51.4,23.12085
51.45,12.38362
51.5,8.38143
51.55,7.115856
51.6,6.416713
51.65,5.727718
51.7,5.201959
51.75,4.754077
51.8,4.228335
51.85,3.806056
51.9,3.448493
51.95,2.859981
52,2.335078
52.05,1.829342
52.1,1.440619
52.15,1.086022
52.2,0.8990275
52.25,0.8366874
52.3,0.7709389
52.35,0.7506745
52.4,0.6288595
52.45,0.5441367
52.5,0.5733187
52.55,0.699299
52.6,0.7742109
52.65,0.6832659
52.7,0.5419227
52.75,0.3632521
52.8,0.2945449
52.85,0.3427294
52.9,0.4496006
52.95,0.4730181
53,0.4772669
53.05,0.4112088
53.1,0.310193
53.15,0.1643772
53.2,0.1393045
53.25,0.2179784
53.3,0.3172852
53.35,0.3084391
53.4,0.3229005
53.45,0.2382423
53.5,0.1757878
53.55,8.469898E-02
53.6,8.410986E-03
53.65,-0.1060895
53.7,-0.2204555
53.75,-0.2908553
53.8,-0.2813682
53.85,-0.2239539
53.9,-0.163821
53.95,-0.2050621
54,-0.2023378
54.05,-0.1922365
54.1,-0.1778754
54.15,-8.094871E-02
54.2,-2.505874E-02
54.25,5.297453E-03
54.3,2.249022E-02
54.35,1.903947E-02
54.4,0.1190859
54.45,0.25318
54.5,0.258366
54.55,4.472465E-02
54.6,1.477798E-02
54.65,-3.566722E-03
54.7,7.008792E-03
54.75,7.672387E-02
54.8,0.2299197
54.85,0.2693385
54.9,0.3020288
54.95,0.3583274
55,0.3695191
55.05,0.3630478
55.1,0.3983884
55.15,0.35213
55.2,0.3061558
55.25,0.3516594
55.3,0.2277238
55.35,0.2121097
55.4,0.4639015
55.45,1.139751
55.5,2.975592
55.55,8.149428
55.6,20.80613
55.65,45.26508
55.7,85.09626
55.75,140.9479
55.8,206.2195
55.85,267.8372
55.9,311.1679
55.95,321.3464
56,296.2238
56.05,242.7946
56.1,176.2009
56.15,112.8561
56.2,63.82005
56.25,32.9801
56.3,17.40428
56.35,11.44649
56.4,9.384149
56.45,8.07239
56.5,6.975665
56.55,5.980188
56.6,5.0291
56.65,4.526533
56.7,4.09724
56.75,3.918986
56.8,3.657953
56.85,3.337428
56.9,2.991498
56.95,2.666631
57,2.34865
57.05,2.029631
57.1,1.885146
57.15,1.602245
57.2,1.234918
57.25,1.422093
57.3,1.486825
57.35,1.357008
57.4,1.239708
57.45,1.049842
57.5,0.8200085
57.55,0.6968621
57.6,0.7339659
57.65,0.5655075
57.7,0.3340198
57.75,0.2980892
57.8,0.2062558
57.85,0.1587429
57.9,0.1331676
57.95,0.1302818
58,9.501828E-02
58.05,0.1614619
58.1,0.2000712
58.15,0.1654217
58.2,-6.847576E-03
58.25,-0.1520948
58.3,-0.2833079
58.35,-0.2939062
58.4,-0.2828754
58.45,-0.2404028
58.5,-0.3147712
58.55,-0.4222339
58.6,-0.454081
58.65,-0.3695272
58.7,-0.3308243
58.75,-0.1783311
58.8,-8.462636E-02
58.85,-0.1099722
58.9,-0.1231443
58.95,-6.199937E-02
59,-3.148959E-02
59.05,-5.453875E-02
59.1,-3.062911E-02
59.15,-8.351482E-02
59.2,-0.2003703
59.25,-0.1496898
59.3,-9.740677E-02
59.35,-4.362449E-02
59.4,-7.955471E-02
59.45,-0.136347
59.5,-0.2112088
59.55,-0.2910861
59.6,-0.2183134
59.65,-6.976051E-02
59.7,2.893568E-02
59.75,9.45155E-03
59.8,-2.169057E-02
59.85,6.849248E-02
59.9,0.1036705
59.95,0.2567
60,0.2728684
60.05,0.2779124
60.1,0.2553457
60.15,0.1286759
60.2,0.2735423
60.25,1.338027
60.3,5.103202
60.35,15.50904
60.4,37.01588
60.45,74.20062
60.5,127.114
60.55,192.4978
60.6,259.138
60.65,312.7628
60.7,342.0988
60.75,339.0132
60.8,304.8466
60.85,248.6139
60.9,183.1878
60.95,122.2343
61,74.82139
61.05,45.20328
61.1,29.93824
61.15,23.29661
61.2,20.46416
61.25,18.5388
61.3,16.42105
61.35,14.89367
61.4,13.42449
61.45,12.03443
61.5,10.77182
61.55,9.652676
61.6,8.614884
61.65,7.607947
61.7,6.655566
61.75,5.741441
61.8,4.888776
61.85,4.207489
61.9,3.709336
61.95,3.3134
62,2.950979
62.05,2.686
62.1,2.503646
62.15,2.303337
62.2,1.954881
62.25,1.747206
62.3,1.518802
62.35,1.330059
62.4,1.09084
62.45,0.8301003
62.5,0.59962
62.55,0.3796851
62.6,0.279186
62.65,8.269081E-02
62.7,7.587801E-02
62.75,5.597802E-03
62.8,-0.1476532
62.85,-0.1081325
62.9,-0.1267904
62.95,-0.2760099
63,-0.425135
63.05,-0.4627123
63.1,-0.3542858
63.15,-0.2821764
63.2,-0.1334233
63.25,-0.2111759
63.3,-0.3539491
63.35,-0.3958762
63.4,-0.3335828
63.45,-0.2891407
63.5,-0.3430894
63.55,-0.4774738
63.6,-0.5108721
63.65,-0.4848082
63.7,-0.3998066
63.75,-0.3730547
63.8,-0.407162
63.85,-0.4625444
63.9,-0.4958868
63.95,-0.4638471
64,-0.3549304
64.05,-0.2954659
64.1,-0.2260935
64.15,-0.2141298
64.2,-0.1358398
64.25,-0.1578342
64.3,-0.2304004
64.35,-0.323009
64.4,-0.336121
64.45,-0.3389867
64.5,-0.3442884
64.55,-0.255482
64.6,-0.2218026
64.65,-0.1687163
64.7,-0.2549616
64.75,-0.1824426
64.8,-0.2870848
64.85,-0.407064
64.9,-0.4501937
64.95,-0.4361823
65,-0.3280269
65.05,-0.2722131
65.1,-0.2485988
65.15,-0.329231
65.2,-0.4444117
65.25,-0.5680082
65.3,-0.5770681
65.35,-0.4719728
65.4,-0.4880306
65.45,-0.5082931
65.5,-0.4933613
65.55,-0.4697668
65.6,-0.3875324
65.65,-0.3734842
65.7,-0.3416917
65.75,-0.3430896
65.8,-0.3556166
65.85,-0.3904649
65.9,-0.4569227
65.95,-0.4999922
66,-0.4817835
66.05,-0.4926088
66.1,-0.4564341
66.15,-0.5772896
66.2,-0.6477718
66.25,-0.5914893
66.3,-0.4910691
66.35,-0.3152197
66.4,-0.2679998
66.45,-0.3420739
66.5,-0.3711827
66.55,-0.3632325
66.6,-0.2993923
66.65,-0.2933427
66.7,-0.3083757
66.75,-0.3144231
66.8,-0.3820384
66.85,-0.3514585
66.9,-0.3782524
66.95,-0.2802111
67,-0.2054819
67.05,-0.1636453
67.1,-0.1784403
67.15,-0.3454526
67.2,-0.5493852
67.25,-0.7157432
67.3,-0.6347997
67.35,-0.5819595
67.4,-0.5071276
67.45,-0.5653304
67.5,-0.6723748
67.55,-0.6503477
67.6,-0.6801643
67.65,-0.6620132
67.7,-0.5822575
67.75,-0.6414078
67.8,-0.655742
67.85,-0.6808036
67.9,-0.6031848
67.95,-0.5429174
68,-0.5063912
68.05,-0.4482326
68.1,-0.4646493
68.15,-0.4666632
68.2,-0.5769868
68.25,-0.7436083
68.3,-0.8762848
68.35,-0.8919785
68.4,-0.8218303
68.45,-0.6872746
68.5,-0.581519
68.55,-0.5077482
68.6,-0.5504956
68.65,-0.5818376
68.7,-0.539988
68.75,-0.418867
68.8,-0.2920337
68.85,-0.2148435
68.9,-8.287878E-02
68.95,-0.1126345
69,-0.2130564
69.05,-0.281069
69.1,-0.2712829
69.15,-0.2060765
69.2,-0.2056225
69.25,-0.2712364
69.3,-0.3960051
69.35,-0.4277206
69.4,-0.3311893
69.45,2.026917E-02
69.5,1.290976
69.55,5.483532
69.6,14.75205
69.65,34.43545
69.7,68.16801
69.75,117.5794
69.8,180.4494
69.85,249.6673
69.9,314.8582
69.95,366.1983
70,394.151
70.05,394.6277
70.1,367.2217
70.15,316.8063
70.2,252.312
70.25,185.9968
70.3,128.1071
70.35,84.73053
70.4,56.03045
70.45,40.31897
70.5,31.78762
70.55,27.23794
70.6,24.20495
70.65,21.78247
70.7,19.63353
70.75,17.5169
70.8,15.769
70.85,14.25606
70.9,12.64775
70.95,11.09674
71,9.815058
71.05,8.536232
71.1,7.237485
71.15,6.234399
71.2,5.570561
71.25,4.834598
71.3,4.268497
71.35,3.941538
71.4,3.681014
71.45,3.454016
71.5,3.317557
71.55,3.269818
71.6,2.944126
71.65,2.561236
71.7,2.184927
71.75,1.958682
71.8,1.82158
71.85,1.71682
71.9,1.535755
71.95,1.312038
72,1.045725
72.05,0.8435978
72.1,0.6843685
72.15,0.6217639
72.2,0.5721648
72.25,0.4159639
72.3,0.2411563
72.35,-5.376022E-02
72.4,-0.1691016
72.45,-0.3076479
72.5,-0.2834057
72.55,-0.2198319
72.6,-0.215185
72.65,-0.2652601
72.7,-0.1718645
72.75,-4.819302E-02
72.8,-0.2232547
72.85,-0.2344171
72.9,-0.215982
72.95,-0.2057521
73,-0.2914821
73.05,-0.3369334
73.1,-0.4323233
73.15,-0.540741
73.2,-0.4888946
73.25,-0.4463991
73.3,-0.4471909
73.35,-0.5207472
73.4,-0.6214845
73.45,-0.5781295
73.5,-0.5854564
73.55,-0.523157
73.6,-0.4326313
73.65,-0.4442827
73.7,-0.48566
73.75,-0.5904554
73.8,-0.5310122
73.85,-0.4424391
73.9,-0.3291645
73.95,-0.2513716
74,-0.326103
74.05,-0.4125785
74.1,-0.5654919
74.15,-0.6274075
74.2,-0.640603
74.25,-0.5710752
74.3,-0.5392242
74.35,-0.3512582
74.4,-0.3400984
74.45,-0.4457376
74.5,-0.6086819
74.55,-0.6366061
74.6,-0.6307924
74.65,-0.5772158
74.7,-0.5380819
74.75,-0.6434985
74.8,-0.7889118
74.85,-0.735284
74.9,-0.7039007
74.95,-0.7614905
75,-0.8587897
75.05,-0.7588841
75.1,-0.690263
75.15,-0.5881651
75.2,-0.450184
75.25,-0.4072492
75.3,-0.5318209
75.35,-0.7383551
75.4,-0.8127895
75.45,-0.8539731
75.5,-0.8297752
75.55,-0.7988129
75.6,-0.7000806
75.65,-0.6969904
75.7,-0.733592
75.75,-0.6218232
75.8,-0.5160344
75.85,-0.4961078
75.9,-0.577886
75.95,-0.630243
76,-0.5883656
76.05,-0.5075092
76.1,-0.3973347
76.15,-0.3603101
76.2,-0.3800966
76.25,-0.5482767
76.3,-0.6717
76.35,-0.611029
76.4,-0.5234192
76.45,-0.4878314
76.5,-0.3953667
76.55,-0.4819297
76.6,-0.5490769
76.65,-0.6595187
76.7,-0.6939741
76.75,-0.6129707
76.8,-0.5705104
76.85,-0.6302992
76.9,-0.6745695
76.95,-0.6583264
77,-0.6949388
77.05,-0.7847916
77.1,-0.837227
77.15,-0.950402
77.2,-1.101135
77.25,-0.9450064
77.3,-0.1794383
77.35,1.601106
77.4,5.661167
77.45,13.81551
77.5,29.35016
77.55,55.45849
77.6,94.72546
77.65,146.2876
77.7,210.2275
77.75,276.9617
77.8,338.133
77.85,387.2056
77.9,417.1061
77.95,423.6302
78,408.0358
78.05,372.841
78.1,322.4293
78.15,263.5135
78.2,204.2794
78.25,150.7735
78.3,107.0663
78.35,76.89578
78.4,57.32752
78.45,46.13368
78.5,39.44151
78.55,34.95907
78.6,31.15151
78.65,27.57019
78.7,23.95107
78.75,20.70133
78.8,18.06902
78.85,15.90891
78.9,13.86656
78.95,12.12686
79,10.55764
79.05,8.825088
79.1,7.413956
79.15,6.457297
79.2,5.687124
79.25,4.867583
79.3,4.288477
79.35,3.729596
79.4,3.176555
79.45,2.777826
79.5,2.385468
79.55,2.140539
79.6,1.807133
79.65,1.451207
79.7,1.022254
79.75,0.8889703
79.8,0.6000589
79.85,0.4907975
79.9,0.4556529
79.95,0.467557
80,0.4452828
80.05,0.4084024
80.1,0.4068039
80.15,0.3749849
80.2,0.315027
80.25,5.130705E-02
80.3,-0.2164468
80.35,-0.2591852
80.4,-9.415749E-02
80.45,0.012017
80.5,0.1576167
80.55,0.1048919
80.6,-8.974226E-02
80.65,-0.256022
80.7,-0.3010821
80.75,-0.267569
80.8,-0.3816307
80.85,-0.5037961
80.9,-0.506823
80.95,-0.4984798
81,-0.4823376
81.05,-0.6669067
81.1,-0.6320418
81.15,-0.6973096
81.2,-0.7403929
81.25,-0.7700087
81.3,-0.7762686
81.35,-0.7471686
81.4,-0.6954108
81.45,-0.7271294
81.5,-0.817263
81.55,-0.8863956
81.6,-1.01684
81.65,-1.182415
81.7,-1.339589
81.75,-1.44849
81.8,-1.584237
81.85,-1.444683
81.9,-1.219865
81.95,-1.093239
82,-1.134327
82.05,-1.218075
82.1,-1.360142
82.15,-1.408424
82.2,-1.313205
82.25,-1.121182
82.3,-1.003014
82.35,-1.069101
82.4,-1.177875
82.45,-1.416808
82.5,-1.432552
82.55,-1.430292
82.6,-1.40866
82.65,-1.288264
82.7,-1.176998
82.75,-1.032077
82.8,-0.8885702
82.85,-0.6311659
82.9,-0.1741378
82.95,1.237055
83,4.504701
83.05,11.7513
83.1,25.44401
83.15,46.76638
83.2,79.40971
83.25,122.994
83.3,176.562
83.35,235.9909
83.4,295.4194
83.45,348.4342
83.5,387.1508
83.55,409.5744
83.6,415.4299
83.65,403.5078
83.7,376.263
83.75,336.7749
83.8,289.7344
83.85,240.015
83.9,192.7642
83.95,152.455
84,119.9316
84.05,95.19249
84.1,78.26707
84.15,66.95583
84.2,58.49643
84.25,51.17702
84.3,44.71743
84.35,39.0894
84.4,33.68757
84.45,29.52556
84.5,26.33707
84.55,23.37891
84.6,20.69238
84.65,18.27651
84.7,15.91407
84.75,13.87127
84.8,12.64273
84.85,11.67405
84.9,10.41183
84.95,8.959874
85,7.459564
85.05,6.640343
85.1,6.159951
85.15,6.066395
85.2,5.564271
85.25,4.670416
85.3,3.710295
85.35,2.990244
85.4,2.558855
85.45,2.494097
85.5,2.285399
85.55,2.059642
85.6,1.731856
85.65,1.267517
85.7,0.8849848
85.75,0.7301836
85.8,0.6718277
85.85,0.3231998
85.9,7.233981E-03
85.95,-7.455561E-02
86,-0.1235903
86.05,-0.1781895
86.1,-0.1607865
86.15,-0.4709608
86.2,-0.8924547
86.25,-1.14093
86.3,-1.143851
86.35,-1.0475
86.4,-1.146941
86.45,-1.019439
86.5,-1.108103
86.55,-1.381834
86.6,-1.472924
86.65,-1.507009
86.7,-1.529332
86.75,-1.611946
86.8,-1.647769
86.85,-1.600107
86.9,-1.708887
86.95,-1.701726
87,-1.664635
87.05,-1.634035
87.1,-1.647508
87.15,-1.677225
87.2,-1.637486
87.25,-1.644767
87.3,-1.679038
87.35,-1.614424
87.4,-1.567533
87.45,-1.583643
87.5,-1.603275
87.55,-1.497229
87.6,-1.202503
87.65,-0.5881231
87.7,0.922356
87.75,4.371085
87.8,11.12652
87.85,22.34356
87.9,39.90069
87.95,64.4162
88,98.90878
88.05,142.6508
88.1,195.8503
88.15,254.9116
88.2,313.3268
88.25,364.7437
88.3,406.7987
88.35,435.4698
88.4,449.8266
88.45,448.701
88.5,431.65
88.55,400.0005
88.6,356.586
88.65,308.9249
88.7,260.3091
88.75,215.9352
88.8,177.0556
88.85,144.2571
88.9,117.5793
88.95,95.96089
89,78.76604
89.05,65.55973
89.1,55.15789
89.15,45.83838
89.2,38.03813
89.25,31.34609
89.3,25.91604
89.35,21.99146
89.4,19.09291
89.45,16.70768
89.5,14.43627
89.55,12.27126
89.6,10.35676
89.65,8.559876
89.7,7.057748
89.75,5.852125
89.8,4.990872
89.85,4.502005
89.9,3.848236
89.95,3.351029
90,2.661567
90.05,2.320467
90.1,1.847547
90.15,1.423541
90.2,1.224302
90.25,0.8929489
90.3,0.4459164
90.35,6.596436E-02
90.4,-0.3037942
90.45,-0.719385
90.5,-0.812859
90.55,-0.5944617
90.6,-1.348347E-02
90.65,1.173701
90.7,4.26014
90.75,8.800128
90.8,16.73188
90.85,30.36313
90.9,51.30539
90.95,80.01177
91,118.0357
91.05,164.566
91.1,218.143
91.15,273.1249
91.2,325.0962
91.25,370.5132
91.3,404.8051
91.35,429.927
91.4,441.195
91.45,437.8209
91.5,421.4476
91.55,391.2967
91.6,351.6734
91.65,307.1999
91.7,261.9397
91.75,217.3232
91.8,177.3997
91.85,144.3925
91.9,116.347
91.95,94.26788
92,78.07339
92.05,65.54668
92.1,55.23466
92.15,46.80923
92.2,40.02619
92.25,34.42052
92.3,29.55362
92.35,25.55843
92.4,22.11285
92.45,18.92485
92.5,16.08547
92.55,13.62332
92.6,11.8372
92.65,9.48462
92.7,8.080361
92.75,6.807904
92.8,6.172554
92.85,5.46396
92.9,4.766188
92.95,3.917977
93,2.928603
93.05,2.089536
93.1,1.659211
93.15,1.593828
93.2,1.521275
93.25,1.19733
93.3,0.639062
93.35,0.2016227
93.4,-5.373274E-02
93.45,-0.1449142
93.5,-0.1467458
93.55,-0.1672278
93.6,-0.4665287
93.65,-0.7468732
93.7,-0.9153037
93.75,-1.198714
93.8,-1.368715
93.85,-1.444116
93.9,-1.438761
93.95,-1.505846
94,-1.486289
94.05,-1.608929
94.1,-1.788203
94.15,-1.904908
94.2,-2.089391
94.25,-2.188847
94.3,-2.216347
94.35,-2.200231
94.4,-1.973452
94.45,-1.656337
94.5,-1.571458
94.55,-1.656078
94.6,-1.293073
94.65,-0.6006539
94.7,0.6086465
94.75,3.619581
94.8,8.565798
94.85,16.12243
94.9,28.01371
94.95,45.84167
95,68.49308
95.05,97.59503
95.1,134.955
95.15,177.1597
95.2,223.3934
95.25,268.9964
95.3,314.5059
95.35,357.6464
95.4,396.2379
95.45,427.7974
95.5,447.8899
95.55,455.3763
95.6,448.3862
95.65,430.8212
95.7,405.2001
95.75,372.8779
95.8,337.4515
95.85,300.7997
95.9,263.7406
95.95,226.9272
96,194.6357
96.05,166.0073
96.1,139.4969
96.15,116.8277
96.2,97.21925
96.25,80.88524
96.3,67.91744
96.35,57.99666
96.4,48.99556
96.45,40.59087
96.5,33.60382
96.55,27.89093
96.6,23.18813
96.65,19.0362
96.7,15.60853
96.75,13.21523
96.8,11.46146
96.85,10.52761
96.9,9.068855
96.95,7.361517
97,5.552261
97.05,4.281495
97.1,3.844457
97.15,3.543445
97.2,3.199233
97.25,2.631958
97.3,1.901274
97.35,1.361611
97.4,0.8459539
97.45,0.7257768
97.5,0.5983158
97.55,0.4955064
97.6,0.2378998
97.65,0.1461576
97.7,0.2924039
97.75,0.2756511
97.8,0.2077666
97.85,0.2048927
97.9,6.257154E-02
97.95,-0.3688729
98,-0.4632855
98.05,-0.3326192
98.1,-0.3608263
98.15,-0.3452321
98.2,-0.3357629
98.25,-0.1983473
98.3,-0.3280087
98.35,-0.4353787
98.4,-0.6460856
98.45,-0.9655738
98.5,-1.38916
98.55,-1.632397
98.6,-1.593289
98.65,-1.554248
98.7,-1.391765
98.75,-1.341967
98.8,-1.173023
98.85,-1.391181
98.9,-1.64051
98.95,-1.803177
99,-1.648349
99.05,-1.354195
99.1,-0.9756109
99.15,-0.6344014
99.2,-0.8352063
99.25,-1.144448
99.3,-1.431794
99.35,-1.368459
99.4,-1.304964
99.45,-1.212686
99.5,-1.116211
99.55,-1.293577
99.6,-1.535806
99.65,-1.49506
99.7,-1.204562
99.75,-0.9389401
99.8,-0.7696887
99.85,-0.7926337
99.9,-0.956119
99.95,-1.341451
100,-1.650221
100.05,-1.711553
100.1,-1.63308
100.15,-1.313277
100.2,-1.249442
100.25,-1.263737
100.3,-1.191829
100.35,-1.100829
100.4,-0.8879556
100.45,-0.4134106
100.5,0.1350402
100.55,1.179361
100.6,3.861442
100.65,8.333968
100.7,16.76617
100.75,30.37183
100.8,49.44964
100.85,73.46031
100.9,105.1489
100.95,147.2665
101,197.7638
101.05,255.0356
101.1,317.3816
101.15,382.1475
101.2,442.0905
101.25,490.7389
101.3,525.0306
101.35,545.5959
101.4,554.024
101.45,555.0568
101.5,544.172
101.55,520.4077
101.6,482.6435
101.65,436.2607
101.7,387.2863
101.75,340.2375
101.8,294.6716
101.85,249.147
101.9,205.4916
101.95,166.5856
102,134.579
102.05,109.6932
102.1,90.26562
102.15,73.36865
102.2,58.99155
102.25,47.23782
102.3,39.0943
102.35,32.90709
102.4,27.8804
102.45,22.89751
102.5,18.10971
102.55,14.47452
102.6,12.23966
102.65,10.56562
102.7,8.732844
102.75,6.84285
102.8,5.168266
102.85,3.833011
102.9,3.049101
102.95,2.850416
103,2.369681
103.05,1.754525
103.1,1.292226
103.15,1.205344
103.2,1.018344
103.25,0.9611912
103.3,0.8457336
103.35,0.7841102
103.4,0.783219
103.45,1.506178
103.5,3.239283
103.55,5.453707
103.6,9.859297
103.65,16.94705
103.7,29.28655
103.75,47.03883
103.8,71.41507
103.85,104.5637
103.9,145.732
103.95,195.3588
104,251.533
104.05,311.5951
104.1,368.6226
104.15,420.4708
104.2,468.7128
104.25,508.3716
104.3,539.1416
104.35,559.3217
104.4,567.9833
104.45,562.528
104.5,542.7901
104.55,514.6016
104.6,476.7634
104.65,436.3537
104.7,393.488
104.75,347.5204
104.8,299.1248
104.85,251.0411
104.9,211.1273
104.95,172.5222
105,140.0563
105.05,113.5391
105.1,89.52234
105.15,71.13866
105.2,59.68578
105.25,52.20709
105.3,45.02623
105.35,36.79011
105.4,28.76094
105.45,22.20707
105.5,17.35165
105.55,16.28731
105.6,14.84037
105.65,13.39047
105.7,11.07075
105.75,9.401739
105.8,8.915891
105.85,8.855542
105.9,9.056261
105.95,8.553153
106,7.591586
106.05,6.417345
106.1,6.20011
106.15,6.86542
106.2,7.952206
106.25,8.08902
106.3,6.874034
106.35,5.341935
106.4,4.47136
106.45,4.248576
106.5,4.69397
106.55,5.05745
106.6,4.799405
106.65,4.417129
106.7,4.322645
106.75,4.065308
106.8,3.709601
106.85,3.301022
106.9,3.450784
106.95,3.32261
107,3.106946
107.05,2.882167
107.1,2.666212
107.15,2.633369
107.2,2.336257
107.25,1.889786
107.3,1.191556
107.35,0.2761781
107.4,0.2423787
107.45,1.142873
107.5,1.937975
107.55,1.867982
107.6,2.251148
107.65,2.173459
107.7,1.924096
107.75,1.970991
107.8,2.187668
107.85,2.390768
107.9,3.412924
107.95,5.1019
108,6.376714
108.05,6.833346
108.1,6.412881
108.15,4.954483
108.2,3.552023
108.25,2.960718
108.3,2.557355
108.35,3.327021
108.4,3.811933
108.45,4.421197
108.5,5.877398
108.55,7.668343
108.6,10.94227
108.65,15.97959
108.7,21.51821
108.75,30.6154
108.8,44.05337
108.85,61.0448
108.9,83.67917
108.95,112.1673
109,148.686
109.05,189.5058
109.1,231.2798
109.15,272.074
109.2,310.6508
109.25,353.7273
109.3,394.2037
109.35,431.8465
109.4,463.3452
109.45,482.3409
109.5,498.7998
109.55,506.051
109.6,498.0696
109.65,475.9294
109.7,449.0757
109.75,427.414
109.8,404.8052
109.85,378.0674
109.9,347.342
109.95,309.7263
110,273.7339
110.05,239.2243
110.1,207.7878
110.15,174.1383
110.2,144.6599
110.25,126.0259
110.3,114.6888
110.35,105.3254
110.4,92.1962
110.45,77.86509
110.5,62.37932
110.55,47.46622
110.6,37.39497
110.65,29.80679
110.7,24.94426
110.75,23.56946
110.8,24.14776
110.85,22.38869
110.9,20.12555
110.95,17.66167
111,15.11154
111.05,12.84395
111.1,11.7097
111.15,10.39508
111.2,8.577338
111.25,7.041149
111.3,5.513631
111.35,4.170058
111.4,4.09389
111.45,3.576824
111.5,3.318075
111.55,3.611783
111.6,3.008018
111.65,2.29897
111.7,1.926264
111.75,1.678971
111.8,1.603196
111.85,1.596558
111.9,2.869036
111.95,4.302327
112,5.724574
112.05,7.689059
112.1,10.95791
112.15,16.30445
112.2,21.36329
112.25,27.86214
112.3,36.45662
112.35,48.19043
112.4,63.15823
112.45,82.66011
112.5,104.788
112.55,128.8599
112.6,154.5018
112.65,177.5018
112.7,189.5804
112.75,193.0153
112.8,195.419
112.85,194.7469
112.9,198.4635
112.95,209.0184
113,219.0822
113.05,216.8602
113.1,205.1204
113.15,193.1799
113.2,177.4964
113.25,162.1654
113.3,149.266
113.35,137.5202
113.4,122.0805
113.45,106.3985
113.5,93.2791
113.55,81.20122
113.6,70.46469
113.65,58.3941
113.7,50.69427
113.75,40.71714
113.8,32.39265
113.85,28.01581
113.9,23.87638
113.95,20.93956
114,18.03786
114.05,14.176
114.1,10.38025
114.15,8.687905
114.2,8.887768
114.25,9.518661
114.3,11.56258
114.35,13.13578
114.4,13.16931
114.45,13.12903
114.5,13.88146
114.55,12.51503
114.6,10.35898
114.65,8.482275
114.7,6.670001
114.75,5.26538
114.8,4.353343
114.85,3.625894
114.9,3.201177
114.95,3.425253
115,3.637158
115.05,4.698239
115.1,5.838107
115.15,6.445632
115.2,5.845382
115.25,5.178929
115.3,3.620954
115.35,2.126203
115.4,2.116166
115.45,2.994366
115.5,3.025259
115.55,2.160908
115.6,1.957775
115.65,1.524421
115.7,1.068967
115.75,0.7300035
115.8,0.3987797
115.85,0.3638239
115.9,0.7163039
115.95,1.399626
116,1.632428
116.05,0.7496716
116.1,-0.4162034
116.15,-1.23045
116.2,-0.7967491
116.25,0.139582
116.3,0.1496274
116.35,3.993459E-02
116.4,-0.4328774
116.45,-1.556427
116.5,-2.630602
116.55,-2.886416
116.6,-3.151728
116.65,-3.233562
116.7,-3.055801
116.75,-2.987291
116.8,-3.166344
116.85,-3.13707
116.9,-3.113214
116.95,-3.522991
117,-3.519203
117.05,-3.783727
117.1,-4.206376
117.15,-4.441595
117.2,-4.787551
117.25,-4.7263
117.3,-4.58771
117.35,-4.073252
117.4,-3.600691
117.45,-3.276037
117.5,-3.416973
117.55,-3.68863
117.6,-3.645051
117.65,-3.694522
117.7,-3.399824
117.75,-2.750638
117.8,-2.636906
117.85,-3.274642
117.9,-4.139843
117.95,-4.499863
118,-4.862002
118.05,-4.932823
118.1,-4.682402
118.15,-4.629034
118.2,-4.741857
118.25,-4.757061
118.3,-4.516831
118.35,-4.201713
118.4,-3.901565
118.45,-3.866049
118.5,-3.969912
118.55,-4.318325
118.6,-4.609715
118.65,-4.68752
118.7,-4.375957
118.75,-4.072193
118.8,-4.018632
118.85,-4.124685
118.9,-4.333334
118.95,-4.551816
119,-4.459964
119.05,-4.192238
119.1,-4.02196
119.15,-4.074859
119.2,-4.448649
119.25,-4.894323
119.3,-5.116565
119.35,-5.327839
119.4,-5.420188
119.45,-5.449854
119.5,-5.429843
119.55,-5.51439
119.6,-5.519283
119.65,-5.393497
119.7,-5.437727
119.75,-5.080768
119.8,-4.427894
119.85,-4.356553
119.9,-4.447526
119.95,-4.73595
120,-5.147246
120.05,-5.321886
120.1,-4.791812
120.15,-4.089962
120.2,-3.87809
120.25,-4.137534
120.3,-4.751766
120.35,-5.2779
120.4,-5.619147
120.45,-5.625716
120.5,-5.454634
120.55,-5.396544
120.6,-5.156389
120.65,-4.888945
120.7,-4.670805
120.75,-4.782484
120.8,-5.134982
120.85,-5.429039
120.9,-5.706734
120.95,-5.79186
121,-5.773098
121.05,-5.671751
121.1,-5.407646
121.15,-5.100208
121.2,-5.009179
121.25,-5.304888
121.3,-5.624747
121.35,-5.68863
121.4,-5.641917
121.45,-5.220291
121.5,-4.836594
121.55,-4.74997
121.6,-4.935664
121.65,-5.281162
121.7,-5.515393
121.75,-5.702976
121.8,-5.57355
121.85,-5.573404
121.9,-5.693569
121.95,-5.650933
122,-5.68224
122.05,-5.504779
122.1,-5.490423
122.15,-5.520485
122.2,-5.38686
122.25,-5.300556
122.3,-5.238452
122.35,-5.219429
122.4,-5.231078
122.45,-5.441704
122.5,-5.607583
122.55,-5.570974
122.6,-5.571701
122.65,-5.619412
122.7,-5.668764
122.75,-5.657097
122.8,-5.497481
122.85,-5.390834
122.9,-5.461104
122.95,-5.47991
123,-5.656693
123.05,-5.766851
123.1,-5.752721
123.15,-5.683085
123.2,-5.680213
123.25,-5.916941
123.3,-5.778075
123.35,-5.731931
123.4,-5.727849
123.45,-5.576415
123.5,-5.555166
123.55,-5.762136
123.6,-6.107948
123.65,-6.305882
123.7,-6.324551
123.75,-6.174676
123.8,-5.930371
123.85,-5.382731
123.9,-5.275352
123.95,-5.466778
124,-5.824132
124.05,-6.098567
124.1,-6.169068
124.15,-6.070256
124.2,-5.890326
124.25,-5.718657
124.3,-5.726569
124.35,-5.874245
124.4,-6.096998
124.45,-6.282136
124.5,-6.39249
124.55,-6.347912
124.6,-6.160048
124.65,-6.060594
124.7,-6.221689
124.75,-6.205876
124.8,-6.064273
124.85,-5.907624
124.9,-5.747602
124.95,-5.710183
125,-5.837001
125.05,-6.036767
125.1,-5.906415
125.15,-5.785579
125.2,-5.88016
125.25,-5.895388
125.3,-6.090863
125.35,-6.001814
125.4,-5.840218
125.45,-5.756308
125.5,-5.639297
125.55,-5.598268
125.6,-5.649181
125.65,-5.814855
125.7,-5.953879
125.75,-6.161964
125.8,-6.257801
125.85,-6.261264
125.9,-6.163967
125.95,-6.1957
126,-6.260233
126.05,-6.319911
126.1,-6.312203
126.15,-6.317285
126.2,-6.410597
126.25,-6.415356
126.3,-6.333401
126.35,-6.319765
126.4,-6.314538
126.45,-6.153641
126.5,-6.106716
126.55,-5.93891
126.6,-5.852623
126.65,-5.946152
126.7,-5.934823
126.75,-5.875227
126.8,-5.75849
126.85,-5.766227
126.9,-5.838536
126.95,-5.967338
127,-6.114296
127.05,-6.154171
127.1,-6.217317
127.15,-6.139389
127.2,-6.239842
127.25,-6.18146
127.3,-6.109933
127.35,-6.08944
127.4,-6.113411
127.45,-6.026243
127.5,-5.919783
127.55,-5.9846
127.6,-6.09891
127.65,-6.189446
127.7,-6.29849
127.75,-6.421727
127.8,-6.23635
127.85,-6.006814
127.9,-5.940401
127.95,-5.964333
128,-6.02627
128.05,-6.104048
128.1,-6.264705
128.15,-6.414297
128.2,-6.51264
128.25,-6.684577
128.3,-6.707695
128.35,-6.562611
128.4,-6.423094
128.45,-6.351591
128.5,-6.258547
128.55,-6.185756
128.6,-6.204792
128.65,-6.105486
128.7,-6.139461
128.75,-6.265876
128.8,-6.423441
128.85,-6.326743
128.9,-6.29736
128.95,-6.335837
129,-6.362754
129.05,-6.475079
129.1,-6.620432
129.15,-6.638085
129.2,-6.51678
129.25,-6.474909
129.3,-6.393636
129.35,-6.368201
129.4,-6.45792
129.45,-6.518201
129.5,-6.584189
129.55,-6.425399
129.6,-6.264423
129.65,-6.130643
129.7,-6.020077
129.75,-5.911386
129.8,-5.935937
129.85,-6.056221
129.9,-6.180397
129.95,-6.447117
130,-6.484464
130.05,-6.436025
130.1,-6.315188
130.15,-6.33812
130.2,-6.156354
130.25,-6.031016
130.3,-6.076317
130.35,-6.141537
130.4,-6.21848
130.45,-6.283856
130.5,-6.374931
130.55,-6.39603
130.6,-6.506054
130.65,-6.48422
130.7,-6.506576
130.75,-6.470751
130.8,-6.408238
130.85,-6.545622
130.9,-6.669836
130.95,-6.597131
131,-6.53548
131.05,-6.494449
131.1,-6.464316
131.15,-6.512486
131.2,-6.603878
131.25,-6.621243
131.3,-6.606642
131.35,-6.595328
131.4,-6.646124
131.45,-6.649146
131.5,-6.834019
131.55,-6.777878
131.6,-6.653931
131.65,-6.585658
131.7,-6.522908
131.75,-6.343714
131.8,-6.23002
131.85,-6.294612
131.9,-6.286204
131.95,-6.317832
132,-6.308481
132.05,-6.172323
132.1,-5.900093
132.15,-5.899716
132.2,-6.119772
132.25,-6.372173
132.3,-6.521843
132.35,-6.50176
132.4,-6.445801
132.45,-6.445801
132.5,-6.445801
132.55,-6.445801
132.6,-6.445801
132.65,-6.445801
132.7,-6.445801
132.75,-6.445801
132.8,-6.445801
132.85,-6.445801
132.9,-6.445801
132.95,-6.445801
133,-6.445801
133.05,-6.445801
133.1,-6.445801
133.15,-6.445801
133.2,-6.445801
133.25,-6.445801
133.3,-6.445801
133.35,-6.445801
133.4,-6.445801
133.45,-6.445801
133.5,-6.445801
133.55,-6.445801
133.6,-6.445801
133.65,-6.445801
133.7,-6.445801
133.75,-6.445801
133.8,-6.445801
133.85,-6.445801
133.9,-6.445801
133.95,-6.445801
134,-6.445801
134.05,-6.445801
134.1,-6.445801
134.15,-6.445801
134.2,-6.445801
134.25,-6.445801
134.3,-6.445801
134.35,-6.445801
134.4,-6.445801
134.45,-6.445801
134.5,-6.445801
134.55,-6.445801
134.6,-6.445801
134.65,-6.445801
134.7,-6.445801
134.75,-6.445801
134.8,-6.445801
134.85,-6.445801
134.9,-6.445801
134.95,-6.445801
135,-6.445801
135.05,-6.445801
135.1,-6.445801
135.15,-6.445801
135.2,-6.445801
135.25,-6.445801
135.3,-6.445801
135.35,-6.445801
135.4,-6.445801
135.45,-6.445801
135.5,-6.445801
135.55,-6.445801
135.6,-6.445801
135.65,-6.445801
135.7,-6.445801
135.75,-6.445801
135.8,-6.445801
135.85,-6.445801
135.9,-6.445801
135.95,-6.445801
136,-6.445801
136.05,-6.445801
136.1,-6.445801
136.15,-6.445801
136.2,-6.445801
136.25,-6.445801
136.3,-6.445801
136.35,-6.445801
136.4,-6.445801
136.45,-6.445801
136.5,-6.445801
136.55,-6.445801
136.6,-6.445801
136.65,-6.445801
136.7,-6.445801
136.75,-6.445801
136.8,-6.445801
136.85,-6.445801
136.9,-6.445801
136.95,-6.445801
137,-6.445801
137.05,-6.445801
137.1,-6.445801
137.15,-6.445801
137.2,-6.445801
137.25,-6.445801
137.3,-6.445801
137.35,-6.445801
137.4,-6.445801
137.45,-6.445801
137.5,-6.445801
137.55,-6.445801
137.6,-6.445801
137.65,-6.445801
137.7,-6.445801
137.75,-6.445801
137.8,-6.445801
137.85,-6.445801
137.9,-6.445801
137.95,-6.445801
138,-6.445801
 
Alignment,On
