Data File Name,nextera_nk_0124_High Sensitivity DNA Assay_DE24802700_2018-01-23_12-13-37.xad
Data File Path,C:\Users\jlchiniquy\Desktop\JGI_Computer_BackUp\JBEI,SynBio\MiSeq\20171211_Nextera_library_size_to_loading_concentration
Date Created,"Tuesday, January 23, 2018 8:13:37 PM"
Date Last Modified,"Tuesday, January 23, 2018 10:22:26 PM"
Version Created,B.02.07.SI532
Version Last Modified,B.02.08.SI648
 
Assay Name,High Sensitivity DNA
Assay Path,C:\Program Files\Agilent\2100 bioanalyzer\2100 expert\assays\dsDNA
Assay Title,High Sensitivity DNA Assay
Assay Version,1.0
 
Number of Samples Run,11
 
Sample Name,Ladder
Number of Events,2121
 
Time,Value
32,0.3248291
32.05,0.3248291
32.1,0.3248291
32.15,0.3248291
32.2,0.3248291
32.25,0.3248291
32.3,0.3248291
32.35,0.3248291
32.4,0.3248291
32.45,0.3248291
32.5,0.3248291
32.55,0.3248291
32.6,0.3248291
32.65,0.3248291
32.7,0.3248291
32.75,0.3248291
32.8,0.3248291
32.85,0.3248291
32.9,0.3248291
32.95,0.3248291
33,0.3248291
33.05,0.3248291
33.1,0.3248291
33.15,0.3248291
33.2,0.3248291
33.25,0.3248291
33.3,0.1985365
33.35,-7.757439E-02
33.4,-0.3120141
33.45,-0.3284557
33.5,-0.2177678
33.55,-0.172475
33.6,-0.212297
33.65,-9.790711E-02
33.7,7.211333E-02
33.75,0.2224623
33.8,0.295321
33.85,0.215547
33.9,7.122012E-02
33.95,1.012573E-02
34,6.546292E-02
34.05,6.598905E-02
34.1,2.425748E-02
34.15,0.1153005
34.2,0.214297
34.25,0.2327881
34.3,0.289784
34.35,0.2072853
34.4,6.397591E-02
34.45,-0.1513718
34.5,-0.1569556
34.55,-0.160317
34.6,-2.714376E-03
34.65,0.2087768
34.7,9.078366E-02
34.75,-0.204023
34.8,-0.5719551
34.85,-0.5624271
34.9,-0.5406713
34.95,-0.3541206
35,-0.2418097
35.05,-0.3379813
35.1,-0.4963486
35.15,-0.5606574
35.2,-0.3749233
35.25,-0.3058141
35.3,-0.2701459
35.35,-0.3337803
35.4,-0.3699778
35.45,-0.3519258
35.5,-0.2821521
35.55,-0.1374917
35.6,-1.395668E-02
35.65,0.2178246
35.7,0.2003202
35.75,0.2071354
35.8,0.1049654
35.85,0.052901
35.9,6.545676E-02
35.95,8.490065E-02
36,0.2164111
36.05,0.2584805
36.1,0.248233
36.15,0.1875525
36.2,1.196461E-02
36.25,-0.2003801
36.3,-0.2232314
36.35,-2.294452E-02
36.4,0.1757073
36.45,0.1362339
36.5,-5.793261E-03
36.55,-0.3241487
36.6,-0.5289575
36.65,-0.5000637
36.7,-0.4550214
36.75,-0.4431601
36.8,-0.5111757
36.85,-0.3823729
36.9,-0.2220179
36.95,-0.1904836
37,-0.2188194
37.05,-0.3766778
37.1,-0.5035746
37.15,-0.5810049
37.2,-0.4756977
37.25,-0.3530012
37.3,-0.3306414
37.35,-0.2978368
37.4,-0.2684869
37.45,-0.2926918
37.5,-8.624859E-02
37.55,0.1353379
37.6,0.1253799
37.65,-2.641806E-02
37.7,-0.141196
37.75,-0.1976982
37.8,-0.1774368
37.85,-1.123447E-02
37.9,8.087001E-02
37.95,8.566096E-02
38,0.0105894
38.05,-3.212866E-04
38.1,-9.854008E-02
38.15,-4.624751E-02
38.2,0.0797777
38.25,0.1983066
38.3,0.1586483
38.35,-3.357703E-03
38.4,-0.1595898
38.45,-0.4030316
38.5,-0.5615842
38.55,-0.5554641
38.6,-0.5165061
38.65,-0.3411162
38.7,-0.3030818
38.75,-0.2627968
38.8,-0.4129556
38.85,-0.5341142
38.9,-0.5386299
38.95,-0.5484778
39,-0.5209078
39.05,-0.4889999
39.1,-0.5156958
39.15,-0.4730611
39.2,-0.2965884
39.25,-9.030452E-02
39.3,-2.293854E-02
39.35,-0.0815893
39.4,-7.195591E-02
39.45,-5.001131E-02
39.5,3.685582E-03
39.55,-6.726237E-02
39.6,-0.1575416
39.65,-0.1984284
39.7,-0.1128953
39.75,-8.195325E-04
39.8,-4.109644E-02
39.85,1.223472E-02
39.9,-1.632505E-02
39.95,-9.118692E-02
40,-0.1342192
40.05,-0.3745589
40.1,-0.4746925
40.15,-0.3969454
40.2,-0.2698088
40.25,-0.2528661
40.3,-0.4112716
40.35,-0.5238635
40.4,-0.6763868
40.45,-0.5239268
40.5,-0.5517381
40.55,-0.6544458
40.6,-0.5995442
40.65,-0.6959243
40.7,-0.6990595
40.75,-0.7384844
40.8,-0.692091
40.85,-0.6342105
40.9,-0.4872601
40.95,-0.3820005
41,-0.4197388
41.05,-0.4755021
41.1,-0.5082927
41.15,-0.4766858
41.2,-0.3730138
41.25,-0.2363284
41.3,6.204306E-05
41.35,1.854517E-02
41.4,-0.1017981
41.45,-0.1968282
41.5,-0.2869359
41.55,-0.3552173
41.6,-0.2830983
41.65,-0.1900469
41.7,-0.3209637
41.75,-0.3426381
41.8,-0.1956061
41.85,-0.1487853
41.9,-0.2189328
41.95,-0.2858103
42,-0.4828433
42.05,-0.6051682
42.1,-0.4767288
42.15,-0.4232999
42.2,-0.4722408
42.25,-0.6307459
42.3,-0.7816681
42.35,-0.9263775
42.4,-0.8857723
42.45,-0.8056388
42.5,-0.6452546
42.55,-6.346396E-02
42.6,1.689241
42.65,6.177968
42.7,15.16628
42.75,30.33348
42.8,52.13644
42.85,79.33789
42.9,108.4522
42.95,133.6638
43,147.7784
43.05,145.176
43.1,127.8072
43.15,100.3367
43.2,70.03359
43.25,43.39711
43.3,23.78897
43.35,11.40384
43.4,4.925673
43.45,2.212145
43.5,1.053359
43.55,0.6629214
43.6,0.5315193
43.65,0.5083296
43.7,0.3273327
43.75,5.578445E-02
43.8,-4.430346E-03
43.85,-0.1950681
43.9,-0.3962617
43.95,-0.3704082
44,-0.3532066
44.05,-0.4700525
44.1,-0.6236466
44.15,-0.7452672
44.2,-0.8844641
44.25,-0.9668522
44.3,-0.9468284
44.35,-0.8338729
44.4,-0.8402784
44.45,-0.8586439
44.5,-0.8788455
44.55,-0.8360048
44.6,-0.8033981
44.65,-0.7794724
44.7,-0.7200264
44.75,-0.7745109
44.8,-0.6762221
44.85,-0.1661462
44.9,1.385646
44.95,5.687889
45,15.46689
45.05,34.01503
45.1,64.17352
45.15,106.8513
45.2,157.9221
45.25,205.3026
45.3,238.0056
45.35,245.177
45.4,224.1736
45.45,181.7611
45.5,129.9492
45.55,81.25982
45.6,44.44914
45.65,23.01171
45.7,11.84971
45.75,6.890917
45.8,4.91148
45.85,3.727095
45.9,2.976197
45.95,2.596755
46,2.245836
46.05,2.117583
46.1,2.064918
46.15,1.980899
46.2,1.757635
46.25,1.371282
46.3,0.8323644
46.35,0.247238
46.4,-6.614015E-02
46.45,-0.1476897
46.5,-0.2575963
46.55,-0.4966424
46.6,-0.7772242
46.65,-0.9544733
46.7,-0.9659144
46.75,-0.9728097
46.8,-0.9694148
46.85,-1.01371
46.9,-1.036863
46.95,-1.200921
47,-1.295104
47.05,-1.260104
47.1,-1.267352
47.15,-1.196812
47.2,-1.161307
47.25,-1.164844
47.3,-1.319921
47.35,-1.351021
47.4,-1.440197
47.45,-1.690871
47.5,-1.886858
47.55,-2.037688
47.6,-2.075189
47.65,-2.127141
47.7,-2.140109
47.75,-2.018296
47.8,-1.968588
47.85,-1.895783
47.9,-1.880225
47.95,-1.854033
48,-1.924202
48.05,-2.008634
48.1,-1.962101
48.15,-2.049829
48.2,-1.977558
48.25,-1.941792
48.3,-1.830833
48.35,-1.710977
48.4,-1.645934
48.45,-1.538886
48.5,-1.475608
48.55,-1.345539
48.6,-1.46805
48.65,-1.470036
48.7,-1.589982
48.75,-1.79308
48.8,-1.804146
48.85,-1.734614
48.9,-1.655414
48.95,-1.544369
49,-1.445657
49.05,-1.451059
49.1,-1.611582
49.15,-1.695083
49.2,-1.843406
49.25,-1.90535
49.3,-1.938734
49.35,-2.067674
49.4,-2.158756
49.45,-2.298603
49.5,-2.389687
49.55,-2.346093
49.6,-2.260793
49.65,-2.270698
49.7,-2.308941
49.75,-2.259979
49.8,-2.286036
49.85,-2.314678
49.9,-2.280267
49.95,-2.176056
50,-2.209329
50.05,-2.280573
50.1,-2.335141
50.15,-2.407656
50.2,-2.371367
50.25,-2.203371
50.3,-2.022641
50.35,-2.045953
50.4,-2.0219
50.45,-1.91763
50.5,-1.872151
50.55,-1.690953
50.6,-0.7676603
50.65,1.903794
50.7,9.972372
50.75,28.14858
50.8,61.91196
50.85,113.8826
50.9,178.4815
50.95,242.5823
51,288.3753
51.05,301.2938
51.1,277.2039
51.15,223.8093
51.2,157.0734
51.25,96.84727
51.3,53.47764
51.35,27.80162
51.4,15.33699
51.45,10.50649
51.5,8.787125
51.55,7.559461
51.6,7.017176
51.65,6.339196
51.7,5.934806
51.75,5.224686
51.8,4.385662
51.85,3.479739
51.9,2.436836
51.95,1.412048
52,0.359725
52.05,-0.352724
52.1,-0.7887625
52.15,-0.957903
52.2,-1.094855
52.25,-1.068343
52.3,-1.156512
52.35,-1.350392
52.4,-1.431253
52.45,-1.435783
52.5,-1.56689
52.55,-1.779295
52.6,-1.671028
52.65,-1.590377
52.7,-1.505768
52.75,-1.468729
52.8,-1.503044
52.85,-1.697695
52.9,-1.901565
52.95,-1.914932
53,-1.932451
53.05,-1.991436
53.1,-2.157939
53.15,-2.248061
53.2,-2.321106
53.25,-2.255112
53.3,-2.151507
53.35,-2.03757
53.4,-2.222566
53.45,-2.315683
53.5,-2.394655
53.55,-2.466222
53.6,-2.385561
53.65,-2.319696
53.7,-2.214924
53.75,-2.096481
53.8,-1.964827
53.85,-2.060539
53.9,-2.138747
53.95,-2.101982
54,-2.176831
54.05,-2.250746
54.1,-2.177377
54.15,-2.022744
54.2,-1.918485
54.25,-1.885229
54.3,-1.814013
54.35,-1.845216
54.4,-1.925115
54.45,-1.85742
54.5,-1.886397
54.55,-2.000556
54.6,-2.181918
54.65,-2.26259
54.7,-2.196662
54.75,-2.152673
54.8,-2.081965
54.85,-2.148021
54.9,-2.323243
54.95,-2.436065
55,-2.427686
55.05,-2.361558
55.1,-2.534054
55.15,-2.394718
55.2,-2.315238
55.25,-2.21331
55.3,-2.102341
55.35,-1.879189
55.4,-1.442913
55.45,0.2247471
55.5,5.53572
55.55,18.58878
55.6,47.63451
55.65,96.70361
55.7,164.3737
55.75,240.205
55.8,308.1058
55.85,349.2715
55.9,351.0844
55.95,312.375
56,243.5542
56.05,167.1904
56.1,100.8998
56.15,54.83252
56.2,28.65643
56.25,16.88147
56.3,12.21246
56.35,10.6019
56.4,9.610731
56.45,8.512508
56.5,7.551289
56.55,6.493781
56.6,5.318028
56.65,4.218447
56.7,3.444077
56.75,2.941375
56.8,2.500197
56.85,1.803761
56.9,1.176142
56.95,0.4306489
57,-6.475721E-02
57.05,-0.3178853
57.1,-0.3276728
57.15,-0.57876
57.2,-1.098752
57.25,-1.362949
57.3,-1.712143
57.35,-1.754618
57.4,-1.720624
57.45,-1.695846
57.5,-1.85384
57.55,-2.06633
57.6,-2.155297
57.65,-2.271833
57.7,-2.287775
57.75,-2.172971
57.8,-2.131163
57.85,-2.190997
57.9,-2.19657
57.95,-2.193009
58,-2.05416
58.05,-2.019347
58.1,-2.103035
58.15,-2.214515
58.2,-2.226443
58.25,-2.173707
58.3,-2.175564
58.35,-2.072479
58.4,-2.109563
58.45,-2.24426
58.5,-2.148803
58.55,-2.17402
58.6,-2.119046
58.65,-2.292057
58.7,-2.369746
58.75,-2.466484
58.8,-2.480775
58.85,-2.539429
58.9,-2.687329
58.95,-2.799798
59,-2.868196
59.05,-2.729318
59.1,-2.640723
59.15,-2.615432
59.2,-2.630924
59.25,-2.606094
59.3,-2.722613
59.35,-2.670893
59.4,-2.781686
59.45,-2.861317
59.5,-2.720471
59.55,-2.508413
59.6,-2.324993
59.65,-2.206695
59.7,-2.0844
59.75,-2.094671
59.8,-2.03226
59.85,-2.085117
59.9,-2.193993
59.95,-2.183274
60,-2.251946
60.05,-2.363658
60.1,-2.253298
60.15,-1.134863
60.2,2.967024
60.25,13.5826
60.3,37.04974
60.35,79.43825
60.4,140.6029
60.45,214.8196
60.5,288.2054
60.55,345.718
60.6,373.3448
60.65,362.9701
60.7,317.4016
60.75,247.8064
60.8,174.4262
60.85,112.1878
60.9,68.7421
60.95,43.60084
61,31.03774
61.05,25.43493
61.1,22.43366
61.15,21.0814
61.2,19.97192
61.25,18.69411
61.3,17.28181
61.35,15.40354
61.4,13.44779
61.45,11.70444
61.5,10.26906
61.55,8.678087
61.6,7.587879
61.65,6.511562
61.7,5.434828
61.75,4.641842
61.8,4.044326
61.85,3.545807
61.9,3.068759
61.95,2.712645
62,2.26225
62.05,1.546856
62.1,1.240229
62.15,0.9663026
62.2,0.6623198
62.25,0.3537987
62.3,0.1314837
62.35,-0.1086827
62.4,-0.5672547
62.45,-0.830291
62.5,-1.177889
62.55,-1.285558
62.6,-1.309988
62.65,-1.365779
62.7,-1.502404
62.75,-1.706595
62.8,-1.719344
62.85,-1.719174
62.9,-1.626149
62.95,-1.807656
63,-1.791656
63.05,-1.813749
63.1,-1.825354
63.15,-1.657612
63.2,-1.621099
63.25,-1.665052
63.3,-1.644949
63.35,-1.299868
63.4,-1.392068
63.45,-1.44567
63.5,-1.518779
63.55,-1.646721
63.6,-1.631968
63.65,-1.561427
63.7,-1.519577
63.75,-1.78916
63.8,-1.785447
63.85,-1.811037
63.9,-1.862568
63.95,-1.83059
64,-1.800713
64.05,-1.794792
64.1,-1.925214
64.15,-2.019311
64.2,-2.284842
64.25,-2.491457
64.3,-2.368653
64.35,-2.203142
64.4,-2.129874
64.45,-2.211169
64.5,-2.416229
64.55,-2.534389
64.6,-2.491611
64.65,-2.395252
64.7,-2.227503
64.75,-2.027525
64.8,-1.949367
64.85,-1.92023
64.9,-1.922006
64.95,-1.920654
65,-1.931353
65.05,-1.898358
65.1,-1.958317
65.15,-1.99386
65.2,-1.748253
65.25,-1.507732
65.3,-1.244411
65.35,-1.155666
65.4,-1.31097
65.45,-1.568034
65.5,-1.656712
65.55,-1.608014
65.6,-1.596612
65.65,-1.510831
65.7,-1.53635
65.75,-1.632109
65.8,-1.606394
65.85,-1.53932
65.9,-1.570994
65.95,-1.605713
66,-1.70467
66.05,-1.611092
66.1,-1.735755
66.15,-1.796345
66.2,-1.821657
66.25,-1.769085
66.3,-1.731448
66.35,-1.611569
66.4,-1.593433
66.45,-1.882487
66.5,-1.99713
66.55,-1.85809
66.6,-1.591014
66.65,-1.43074
66.7,-1.413559
66.75,-1.593634
66.8,-1.758852
66.85,-1.79105
66.9,-1.733471
66.95,-1.617065
67,-1.577027
67.05,-1.424659
67.1,-1.304197
67.15,-1.209942
67.2,-1.136897
67.25,-1.23006
67.3,-1.277855
67.35,-1.257272
67.4,-1.290776
67.45,-1.38158
67.5,-1.334664
67.55,-1.384835
67.6,-1.344057
67.65,-1.319651
67.7,-1.129914
67.75,-1.084413
67.8,-1.044127
67.85,-1.153661
67.9,-1.459879
67.95,-1.658517
68,-1.828447
68.05,-1.743366
68.1,-1.7705
68.15,-1.763073
68.2,-1.801473
68.25,-1.780059
68.3,-1.754853
68.35,-1.819009
68.4,-1.924987
68.45,-1.826689
68.5,-1.406735
68.55,-1.108402
68.6,-0.9343533
68.65,-0.9834405
68.7,-1.130361
68.75,-1.251069
68.8,-1.366526
68.85,-1.451381
68.9,-1.50282
68.95,-1.347319
69,-1.085525
69.05,-0.9006987
69.1,-0.8385103
69.15,-0.8429522
69.2,-0.8686123
69.25,-0.9241128
69.3,-0.8146856
69.35,-0.577787
69.4,0.8183499
69.45,5.480543
69.5,17.06583
69.55,40.34056
69.6,80.55458
69.65,139.2802
69.7,212.139
69.75,293.3085
69.8,368.4645
69.85,419.5139
69.9,439.3947
69.95,425.638
70,380.3274
70.05,314.2965
70.1,240.6622
70.15,171.1941
70.2,114.9271
70.25,77.71838
70.3,56.8563
70.35,45.33012
70.4,39.42397
70.45,35.56018
70.5,33.12882
70.55,30.55415
70.6,28.18631
70.65,25.76715
70.7,22.91294
70.75,20.01758
70.8,17.65998
70.85,15.40886
70.9,13.31566
70.95,11.48579
71,9.883141
71.05,8.518144
71.1,7.357646
71.15,6.680451
71.2,5.985077
71.25,5.796422
71.3,5.741644
71.35,5.724574
71.4,5.533845
71.45,5.266494
71.5,4.491689
71.55,3.502924
71.6,2.857571
71.65,2.288561
71.7,1.947241
71.75,1.732702
71.8,1.628448
71.85,1.327575
71.9,1.22195
71.95,1.03501
72,0.7103776
72.05,0.4769829
72.1,0.1885886
72.15,3.887502E-02
72.2,1.147093E-02
72.25,0.1295036
72.3,0.1553124
72.35,0.1386955
72.4,0.0538401
72.45,3.632851E-02
72.5,0.1248165
72.55,0.1654984
72.6,0.2311167
72.65,0.2234658
72.7,0.0642646
72.75,-0.1383331
72.8,-0.2655483
72.85,-0.2956847
72.9,-0.2798693
72.95,-0.1920936
73,-0.1526489
73.05,-8.027042E-02
73.1,-9.822224E-02
73.15,-0.1520825
73.2,-0.2616307
73.25,-0.3903103
73.3,-0.5518183
73.35,-0.5549484
73.4,-0.6543503
73.45,-0.732488
73.5,-0.7741418
73.55,-0.8000307
73.6,-0.6790504
73.65,-0.6114879
73.7,-0.5938732
73.75,-0.7386354
73.8,-0.7738315
73.85,-0.9410204
73.9,-0.9304527
73.95,-0.8616136
74,-0.8490044
74.05,-0.8206553
74.1,-0.6665741
74.15,-0.6036444
74.2,-0.5080037
74.25,-0.3544161
74.3,-0.2574302
74.35,-0.2970454
74.4,-0.3620492
74.45,-0.4879929
74.5,-0.6051065
74.55,-0.3541629
74.6,-0.3189833
74.65,-0.126841
74.7,-0.1298125
74.75,-5.987737E-02
74.8,-8.309329E-02
74.85,-7.180297E-03
74.9,-8.543409E-03
74.95,-0.2746455
75,-0.2471775
75.05,-0.3487346
75.1,-0.4029667
75.15,-0.5023206
75.2,-0.4361379
75.25,-0.3935269
75.3,-0.5079079
75.35,-0.5589167
75.4,-0.5086986
75.45,-0.2822998
75.5,-0.215582
75.55,-9.098045E-02
75.6,-0.1936863
75.65,-0.3827395
75.7,-0.4856758
75.75,-0.4055749
75.8,-0.3056835
75.85,-0.2597665
75.9,-0.1191546
75.95,-0.2155859
76,-0.3096888
76.05,-0.3051709
76.1,-0.2459105
76.15,-0.2066028
76.2,-9.295721E-02
76.25,-5.862037E-02
76.3,-6.531087E-02
76.35,4.081707E-02
76.4,0.1966081
76.45,0.1490728
76.5,-1.698866E-02
76.55,-0.1761335
76.6,-0.2609172
76.65,-0.1943877
76.7,-5.528129E-02
76.75,-6.678183E-02
76.8,-6.111463E-02
76.85,-0.1096538
76.9,-0.2714298
76.95,-0.4462647
77,-0.5412716
77.05,-0.733234
77.1,-0.6802003
77.15,-0.1850017
77.2,0.9670292
77.25,4.283366
77.3,11.26308
77.35,25.06054
77.4,49.89283
77.45,90.09169
77.5,145.7572
77.55,215.1163
77.6,290.6048
77.65,361.1758
77.7,419.4482
77.75,456.4615
77.8,469.209
77.85,455.2206
77.9,417.0338
77.95,360.5078
78,295.3148
78.05,231.3825
78.1,174.8229
78.15,131.1492
78.2,99.626
78.25,78.77193
78.3,66.05576
78.35,58.46335
78.4,52.55442
78.45,46.77408
78.5,41.34592
78.55,35.82711
78.6,31.26032
78.65,27.35806
78.7,24.55834
78.75,21.89106
78.8,19.40278
78.85,17.07278
78.9,14.66605
78.95,12.8594
79,11.16566
79.05,10.02167
79.1,9.044656
79.15,8.265655
79.2,7.484825
79.25,6.714527
79.3,6.344793
79.35,6.015539
79.4,5.947644
79.45,5.649842
79.5,5.349107
79.55,4.99125
79.6,4.487206
79.65,4.205017
79.7,3.704491
79.75,3.321244
79.8,3.001233
79.85,3.035108
79.9,3.111522
79.95,2.977942
80,2.745853
80.05,2.475629
80.1,2.32326
80.15,2.327523
80.2,2.435331
80.25,2.546243
80.3,2.422681
80.35,2.108023
80.4,1.884781
80.45,1.581319
80.5,1.383747
80.55,1.181518
80.6,1.199497
80.65,1.028859
80.7,0.7718519
80.75,0.8075185
80.8,0.8339678
80.85,0.8032579
80.9,0.747706
80.95,0.7334635
81,0.5778389
81.05,0.4674777
81.1,0.4535895
81.15,0.3530163
81.2,0.2220223
81.25,4.196337E-02
81.3,-0.0821028
81.35,-0.1782868
81.4,-0.2075898
81.45,1.241238E-02
81.5,0.1949703
81.55,0.2113681
81.6,5.774714E-02
81.65,8.589397E-02
81.7,7.348876E-02
81.75,0.1777114
81.8,0.4498629
81.85,0.2958825
81.9,1.730582E-02
81.95,-0.1353696
82,4.746103E-02
82.05,2.950701E-02
82.1,0.2326679
82.15,0.3424752
82.2,0.257259
82.25,0.1397979
82.3,-0.1233964
82.35,-0.1072022
82.4,-0.1272777
82.45,-5.846537E-02
82.5,-0.1774865
82.55,-0.36443
82.6,-0.609673
82.65,-0.7139158
82.7,-0.5494366
82.75,-0.0305404
82.8,1.193537
82.85,3.645013
82.9,8.9479
82.95,19.21724
83,37.48602
83.05,66.35857
83.1,109.1861
83.15,163.724
83.2,227.5496
83.25,295.4741
83.3,356.3212
83.35,405.6552
83.4,437.9985
83.45,451.5022
83.5,443.3935
83.55,418.6328
83.6,379.3942
83.65,328.6619
83.7,275.0526
83.75,224.3342
83.8,180.8624
83.85,146.8183
83.9,122.5129
83.95,105.3156
84,92.03273
84.05,80.84127
84.1,71.45863
84.15,63.25512
84.2,55.80806
84.25,49.84661
84.3,44.90999
84.35,40.13307
84.4,35.74624
84.45,32.24628
84.5,29.81444
84.55,27.70189
84.6,25.91618
84.65,23.48712
84.7,20.90388
84.75,18.66447
84.8,17.11548
84.85,16.3693
84.9,15.38021
84.95,14.56373
85,13.25742
85.05,12.08503
85.1,10.89631
85.15,9.801398
85.2,9.033298
85.25,8.285762
85.3,7.98022
85.35,7.353717
85.4,7.029872
85.45,6.571226
85.5,5.968113
85.55,5.565298
85.6,4.918275
85.65,4.199474
85.7,3.442917
85.75,3.030256
85.8,2.89692
85.85,2.942754
85.9,2.981621
85.95,2.686257
86,2.193705
86.05,1.650627
86.1,1.294078
86.15,1.015016
86.2,1.045282
86.25,0.8082094
86.3,0.8376508
86.35,0.6380543
86.4,0.2094979
86.45,-0.1616429
86.5,-0.363155
86.55,-0.365577
86.6,-0.3271866
86.65,-0.1718268
86.7,-0.402022
86.75,-0.5212024
86.8,-0.6409951
86.85,-0.7438781
86.9,-0.798484
86.95,-0.9231895
87,-0.9806003
87.05,-0.9261748
87.1,-0.7460238
87.15,-0.7037593
87.2,-0.6239325
87.25,-0.6223508
87.3,-0.7514654
87.35,-0.8276017
87.4,-0.869288
87.45,-1.001893
87.5,-0.9044599
87.55,-0.5797184
87.6,-2.495627E-02
87.65,1.08065
87.7,3.633677
87.75,9.12051
87.8,18.89656
87.85,35.07568
87.9,61.09564
87.95,98.30359
88,146.9249
88.05,205.5835
88.1,268.9353
88.15,332.7869
88.2,393.0017
88.25,445.1796
88.3,482.4826
88.35,500.7087
88.4,501.3678
88.45,484.4886
88.5,453.0896
88.55,412.6524
88.6,365.7805
88.65,315.4189
88.7,264.0254
88.75,218.5549
88.8,178.3494
88.85,147.7085
88.9,125.3419
88.95,108.3371
89,92.67279
89.05,78.65022
89.1,67.71754
89.15,58.60539
89.2,51.4329
89.25,45.4011
89.3,40.90928
89.35,35.44845
89.4,30.96273
89.45,26.76394
89.5,22.89989
89.55,19.63875
89.6,17.51738
89.65,16.3379
89.7,14.53666
89.75,12.73432
89.8,11.14046
89.85,10.06949
89.9,9.50723
89.95,9.049997
90,8.614857
90.05,7.43603
90.1,6.107259
90.15,5.137056
90.2,4.707669
90.25,4.826394
90.3,4.791738
90.35,4.425808
90.4,3.829087
90.45,3.186158
90.5,2.894491
90.55,2.67624
90.6,2.753475
90.65,3.171321
90.7,4.337806
90.75,6.72528
90.8,11.9689
90.85,21.69461
90.9,37.36359
90.95,61.91566
91,95.59824
91.05,139.3225
91.1,191.0341
91.15,249.6907
91.2,310.9243
91.25,369.1699
91.3,420.8093
91.35,461.0515
91.4,487.1573
91.45,497.3149
91.5,492.4018
91.55,470.7953
91.6,436.6225
91.65,394.7332
91.7,347.7191
91.75,298.0602
91.8,251.1942
91.85,209.7203
91.9,173.9064
91.95,145.6838
92,123.8228
92.05,105.4951
92.1,90.05225
92.15,77.68972
92.2,67.6712
92.25,58.53911
92.3,51.05538
92.35,44.43617
92.4,38.67948
92.45,34.28893
92.5,31.14848
92.55,28.43736
92.6,25.78384
92.65,23.11692
92.7,20.19672
92.75,18.62226
92.8,17.47566
92.85,16.47025
92.9,15.42245
92.95,14.47892
93,13.48578
93.05,12.0791
93.1,10.92043
93.15,9.825891
93.2,8.933021
93.25,8.715956
93.3,8.361824
93.35,7.666482
93.4,6.795016
93.45,6.027914
93.5,5.254493
93.55,4.344831
93.6,4.044069
93.65,3.582608
93.7,3.056318
93.75,2.615973
93.8,2.046239
93.85,1.422433
93.9,1.21604
93.95,1.45409
94,1.404967
94.05,1.514762
94.1,1.466143
94.15,1.299906
94.2,1.080658
94.25,1.024941
94.3,0.6705577
94.35,0.1985119
94.4,0.2563378
94.45,0.4329038
94.5,0.5944799
94.55,0.5034196
94.6,0.5112867
94.65,0.6853473
94.7,1.224013
94.75,2.666175
94.8,4.23636
94.85,6.672113
94.9,10.75428
94.95,19.06679
95,32.45664
95.05,52.63179
95.1,78.8296
95.15,109.3009
95.2,148.097
95.25,194.4212
95.3,246.4188
95.35,302.6619
95.4,356.6314
95.45,404.6557
95.5,443.5973
95.55,474.2067
95.6,494.3258
95.65,501.3322
95.7,497.8614
95.75,482.1451
95.8,457.618
95.85,424.6653
95.9,388.1454
95.95,349.002
96,310.4667
96.05,272.4565
96.1,236.9
96.15,204.1428
96.2,173.953
96.25,147.8361
96.3,125.2181
96.35,107.779
96.4,92.4065
96.45,80.77285
96.5,71.22449
96.55,62.31596
96.6,53.91175
96.65,47.46101
96.7,41.41897
96.75,35.92649
96.8,32.14558
96.85,29.16801
96.9,26.27237
96.95,23.53874
97,21.30327
97.05,18.61128
97.1,16.05828
97.15,14.11391
97.2,12.47568
97.25,11.10013
97.3,10.04883
97.35,9.100806
97.4,8.334409
97.45,7.033789
97.5,6.007796
97.55,5.505034
97.6,5.474963
97.65,5.309297
97.7,4.989423
97.75,4.149327
97.8,3.056134
97.85,2.617217
97.9,2.404208
97.95,2.209744
98,2.188167
98.05,2.193068
98.1,1.893364
98.15,2.067217
98.2,2.132576
98.25,1.743245
98.3,1.617358
98.35,1.795841
98.4,1.827913
98.45,2.09907
98.5,2.22738
98.55,1.935236
98.6,1.39685
98.65,0.9764031
98.7,0.8510492
98.75,1.370191
98.8,1.890705
98.85,2.158493
98.9,1.835274
98.95,1.44259
99,0.8679394
99.05,0.5482156
99.1,0.4607863
99.15,0.5686439
99.2,0.7418754
99.25,0.3958224
99.3,0.1448027
99.35,-0.3726103
99.4,-0.6351607
99.45,-0.6296165
99.5,-0.3275827
99.55,-0.100897
99.6,0.1771046
99.65,0.3509923
99.7,5.322471E-02
99.75,-0.2586944
99.8,-0.321357
99.85,-0.2468482
99.9,7.074715E-02
99.95,0.3869475
100,0.2485293
100.05,-2.507921E-02
100.1,8.055934E-04
100.15,-1.931357E-02
100.2,-0.1050818
100.25,-6.128444E-02
100.3,0.1115208
100.35,0.1876741
100.4,0.1404161
100.45,0.1872795
100.5,0.36888
100.55,0.8830388
100.6,2.976945
100.65,6.604929
100.7,12.26886
100.75,20.71389
100.8,32.49946
100.85,51.72033
100.9,78.1376
100.95,117.5662
101,166.7825
101.05,224.6909
101.1,288.4925
101.15,352.9505
101.2,418.4713
101.25,482.2294
101.3,538.2224
101.35,582.3278
101.4,613.1358
101.45,635.9163
101.5,642.6123
101.55,634.2063
101.6,611.6768
101.65,576.2108
101.7,526.8143
101.75,471.8508
101.8,419.162
101.85,365.4954
101.9,321.9333
101.95,283.3426
102,247.1429
102.05,210.4311
102.1,177.5468
102.15,149.2139
102.2,125.6744
102.25,108.1473
102.3,91.1366
102.35,78.01495
102.4,67.18629
102.45,58.98229
102.5,51.72112
102.55,44.88582
102.6,38.16814
102.65,32.70355
102.7,27.91541
102.75,23.65906
102.8,20.33788
102.85,16.40148
102.9,13.81
102.95,12.4093
103,11.89824
103.05,11.7973
103.1,11.23069
103.15,10.3817
103.2,8.683711
103.25,7.730762
103.3,7.515249
103.35,7.390501
103.4,6.814028
103.45,6.836948
103.5,8.260374
103.55,11.72342
103.6,16.63633
103.65,25.05324
103.7,37.82618
103.75,57.48118
103.8,88.17113
103.85,128.4078
103.9,177.5716
103.95,234.7491
104,296.4271
104.05,363.6779
104.1,431.2609
104.15,496.9995
104.2,555.3348
104.25,600.214
104.3,635.4892
104.35,665.0339
104.4,679.7181
104.45,673.9323
104.5,646.8777
104.55,609.8646
104.6,566.5785
104.65,527.3287
104.7,484.1589
104.75,432.8945
104.8,378.3797
104.85,325.7329
104.9,280.3569
104.95,238.3379
105,205.6322
105.05,176.2235
105.1,151.3045
105.15,130.9061
105.2,112.0942
105.25,95.59655
105.3,81.24446
105.35,71.02371
105.4,62.04768
105.45,54.02565
105.5,47.81554
105.55,41.45586
105.6,37.10534
105.65,33.38725
105.7,30.68453
105.75,28.94619
105.8,27.1432
105.85,24.57233
105.9,21.61522
105.95,19.03675
106,17.10823
106.05,16.14992
106.1,16.42234
106.15,16.27942
106.2,15.06009
106.25,13.82448
106.3,12.1833
106.35,10.68247
106.4,9.169994
106.45,8.576767
106.5,8.835174
106.55,9.239779
106.6,9.908304
106.65,10.09816
106.7,9.641844
106.75,8.343777
106.8,6.932351
106.85,5.904496
106.9,5.143216
106.95,4.947609
107,5.161537
107.05,5.526604
107.1,5.427853
107.15,5.039349
107.2,4.663349
107.25,4.006828
107.3,3.431504
107.35,3.052665
107.4,3.269426
107.45,3.703677
107.5,3.309723
107.55,3.126891
107.6,3.200998
107.65,3.829388
107.7,4.751524
107.75,5.546367
107.8,5.975115
107.85,5.551771
107.9,5.963798
107.95,6.483686
108,7.16285
108.05,7.128712
108.1,6.643331
108.15,6.145415
108.2,5.376869
108.25,6.115304
108.3,8.158776
108.35,8.989827
108.4,8.639792
108.45,9.522464
108.5,11.51991
108.55,13.49214
108.6,17.29758
108.65,21.6275
108.7,26.03998
108.75,37.32358
108.8,55.03869
108.85,74.86313
108.9,98.3933
108.95,128.6414
109,158.0965
109.05,190.8201
109.1,234.2649
109.15,282.1396
109.2,329.7759
109.25,385.8652
109.3,437.5011
109.35,476.839
109.4,515.4979
109.45,549.9302
109.5,576.9844
109.55,596.0833
109.6,603.1521
109.65,590.695
109.7,574.9036
109.75,557.411
109.8,531.7287
109.85,500.641
109.9,457.4948
109.95,401.4388
110,351.3532
110.05,313.8335
110.1,288.8639
110.15,269.1187
110.2,249.2364
110.25,222.5515
110.3,189.8843
110.35,160.5985
110.4,133.814
110.45,113.9987
110.5,98.11358
110.55,86.17799
110.6,76.17621
110.65,67.26282
110.7,61.52223
110.75,56.39349
110.8,51.76349
110.85,47.40137
110.9,40.50969
110.95,35.65416
111,33.05749
111.05,31.32761
111.1,29.64932
111.15,27.46438
111.2,24.26071
111.25,20.66931
111.3,17.44422
111.35,14.77505
111.4,12.38134
111.45,11.73549
111.5,11.31394
111.55,11.00861
111.6,10.35962
111.65,9.286631
111.7,7.658373
111.75,5.73761
111.8,3.873194
111.85,2.650088
111.9,3.0971
111.95,3.970162
112,4.225492
112.05,5.27431
112.1,7.822662
112.15,10.93436
112.2,16.75091
112.25,25.39563
112.3,36.17366
112.35,47.1582
112.4,59.56906
112.45,69.57034
112.5,81.40498
112.55,96.12524
112.6,115.8115
112.65,137.8818
112.7,156.6709
112.75,172.7047
112.8,192.1487
112.85,215.655
112.9,234.5378
112.95,250.8045
113,256.2158
113.05,253.9238
113.1,246.8014
113.15,241.7729
113.2,237.9995
113.25,231.4441
113.3,219.8791
113.35,201.0217
113.4,180.5942
113.45,159.4182
113.5,142.7686
113.55,132.0783
113.6,121.778
113.65,106.4261
113.7,90.96798
113.75,78.81557
113.8,69.16416
113.85,61.37718
113.9,57.45007
113.95,49.92532
114,39.12039
114.05,33.96619
114.1,31.1235
114.15,27.17654
114.2,24.33124
114.25,23.84103
114.3,22.67965
114.35,21.98324
114.4,21.68323
114.45,19.47233
114.5,16.85097
114.55,14.91323
114.6,14.46748
114.65,14.8442
114.7,14.95968
114.75,13.96723
114.8,13.67285
114.85,12.35408
114.9,11.01227
114.95,9.91135
115,8.686743
115.05,7.783711
115.1,7.346509
115.15,8.158818
115.2,8.9264
115.25,8.063084
115.3,5.97435
115.35,3.858769
115.4,2.426117
115.45,2.175559
115.5,3.009932
115.55,4.048223
115.6,4.169511
115.65,3.74098
115.7,3.359979
115.75,2.28012
115.8,1.997095
115.85,2.029206
115.9,1.947894
115.95,1.492259
116,0.9248361
116.05,0.6242355
116.1,0.4080037
116.15,0.9888662
116.2,1.120558
116.25,0.7121706
116.3,-0.1676038
116.35,-1.260311
116.4,-1.94631
116.45,-1.478162
116.5,-1.160324
116.55,-0.5712867
116.6,-0.6968881
116.65,-1.83185
116.7,-2.364993
116.75,-2.423149
116.8,-2.021172
116.85,-1.875799
116.9,-1.802916
116.95,-2.657758
117,-3.505418
117.05,-3.066952
117.1,-2.478661
117.15,-2.266314
117.2,-2.479577
117.25,-3.061369
117.3,-3.922548
117.35,-3.702297
117.4,-3.631681
117.45,-3.365247
117.5,-3.29092
117.55,-3.332351
117.6,-3.600335
117.65,-3.82161
117.7,-3.803784
117.75,-3.996892
117.8,-3.731562
117.85,-3.735527
117.9,-3.472513
117.95,-3.371242
118,-3.423907
118.05,-3.903391
118.1,-4.466422
118.15,-4.631878
118.2,-4.563471
118.25,-3.839446
118.3,-3.638258
118.35,-3.766454
118.4,-4.342019
118.45,-4.863904
118.5,-4.944563
118.55,-4.704804
118.6,-4.069449
118.65,-3.636609
118.7,-3.334642
118.75,-3.498108
118.8,-3.8321
118.85,-4.08212
118.9,-4.237747
118.95,-4.271785
119,-4.130557
119.05,-3.980384
119.1,-4.019847
119.15,-4.127462
119.2,-3.978857
119.25,-3.582052
119.3,-3.536299
119.35,-3.801479
119.4,-4.383591
119.45,-4.722178
119.5,-4.896228
119.55,-4.469613
119.6,-4.197131
119.65,-4.476481
119.7,-4.779488
119.75,-5.083601
119.8,-5.028636
119.85,-4.955791
119.9,-4.734899
119.95,-4.564177
120,-4.725411
120.05,-5.002077
120.1,-5.216829
120.15,-5.340784
120.2,-5.379488
120.25,-5.144277
120.3,-4.901859
120.35,-4.950312
120.4,-4.995915
120.45,-5.103281
120.5,-4.992717
120.55,-4.716886
120.6,-4.143625
120.65,-3.67577
120.7,-3.319584
120.75,-3.457308
120.8,-3.606972
120.85,-4.033596
120.9,-4.416646
120.95,-4.470884
121,-4.60819
121.05,-4.561194
121.1,-4.457661
121.15,-4.066086
121.2,-3.871135
121.25,-4.130667
121.3,-4.648391
121.35,-5.169873
121.4,-5.357536
121.45,-5.432328
121.5,-5.297867
121.55,-5.067544
121.6,-4.9266
121.65,-4.916356
121.7,-4.974889
121.75,-4.783191
121.8,-4.90855
121.85,-5.059109
121.9,-5.170403
121.95,-5.404836
122,-5.742504
122.05,-5.833407
122.1,-5.646131
122.15,-5.616128
122.2,-5.405134
122.25,-5.327452
122.3,-5.299235
122.35,-5.191306
122.4,-5.114044
122.45,-5.051829
122.5,-5.045031
122.55,-4.83576
122.6,-4.763747
122.65,-4.811053
122.7,-4.774557
122.75,-4.97783
122.8,-5.206775
122.85,-5.151372
122.9,-5.028747
122.95,-5.047833
123,-5.09619
123.05,-4.999112
123.1,-5.00449
123.15,-5.023222
123.2,-5.13152
123.25,-5.140956
123.3,-4.901483
123.35,-4.849253
123.4,-4.952075
123.45,-5.143065
123.5,-5.536189
123.55,-5.690232
123.6,-5.66638
123.65,-5.506072
123.7,-5.517456
123.75,-5.498964
123.8,-5.629179
123.85,-5.703662
123.9,-5.593543
123.95,-5.673061
124,-5.589485
124.05,-5.494899
124.1,-5.387414
124.15,-5.103044
124.2,-4.800792
124.25,-4.633297
124.3,-4.781841
124.35,-5.034886
124.4,-5.303376
124.45,-5.275373
124.5,-4.891922
124.55,-4.745863
124.6,-4.893158
124.65,-5.210343
124.7,-5.349011
124.75,-5.280707
124.8,-4.951508
124.85,-4.685816
124.9,-4.691993
124.95,-4.790422
125,-4.754045
125.05,-4.787242
125.1,-4.844293
125.15,-4.927625
125.2,-5.125434
125.25,-5.245257
125.3,-5.294546
125.35,-5.366779
125.4,-5.518246
125.45,-5.612235
125.5,-5.742193
125.55,-5.897532
125.6,-5.980182
125.65,-5.918954
125.7,-5.907398
125.75,-5.753421
125.8,-5.713506
125.85,-5.629635
125.9,-5.681196
125.95,-5.726538
126,-5.437805
126.05,-5.384997
126.1,-5.367325
126.15,-5.402904
126.2,-5.369596
126.25,-5.344968
126.3,-5.263673
126.35,-5.068684
126.4,-5.030837
126.45,-5.023829
126.5,-5.091016
126.55,-5.31118
126.6,-5.540249
126.65,-5.503722
126.7,-5.407877
126.75,-5.356766
126.8,-5.338068
126.85,-5.319864
126.9,-5.466782
126.95,-5.476105
127,-5.427551
127.05,-5.604269
127.1,-5.800633
127.15,-5.993123
127.2,-6.160131
127.25,-6.326685
127.3,-6.097434
127.35,-6.04545
127.4,-6.180661
127.45,-6.445752
127.5,-6.642315
127.55,-6.600474
127.6,-6.501314
127.65,-6.236156
127.7,-6.191615
127.75,-6.248423
127.8,-6.237467
127.85,-6.086895
127.9,-5.886962
127.95,-5.836231
128,-5.844683
128.05,-5.88515
128.1,-5.708121
128.15,-5.524424
128.2,-5.559677
128.25,-5.59416
128.3,-5.713593
128.35,-5.713593
128.4,-5.713593
128.45,-5.713593
128.5,-5.713593
128.55,-5.713593
128.6,-5.713593
128.65,-5.713593
128.7,-5.713593
128.75,-5.713593
128.8,-5.713593
128.85,-5.713593
128.9,-5.713593
128.95,-5.713593
129,-5.713593
129.05,-5.713593
129.1,-5.713593
129.15,-5.713593
129.2,-5.713593
129.25,-5.713593
129.3,-5.713593
129.35,-5.713593
129.4,-5.713593
129.45,-5.713593
129.5,-5.713593
129.55,-5.713593
129.6,-5.713593
129.65,-5.713593
129.7,-5.713593
129.75,-5.713593
129.8,-5.713593
129.85,-5.713593
129.9,-5.713593
129.95,-5.713593
130,-5.713593
130.05,-5.713593
130.1,-5.713593
130.15,-5.713593
130.2,-5.713593
130.25,-5.713593
130.3,-5.713593
130.35,-5.713593
130.4,-5.713593
130.45,-5.713593
130.5,-5.713593
130.55,-5.713593
130.6,-5.713593
130.65,-5.713593
130.7,-5.713593
130.75,-5.713593
130.8,-5.713593
130.85,-5.713593
130.9,-5.713593
130.95,-5.713593
131,-5.713593
131.05,-5.713593
131.1,-5.713593
131.15,-5.713593
131.2,-5.713593
131.25,-5.713593
131.3,-5.713593
131.35,-5.713593
131.4,-5.713593
131.45,-5.713593
131.5,-5.713593
131.55,-5.713593
131.6,-5.713593
131.65,-5.713593
131.7,-5.713593
131.75,-5.713593
131.8,-5.713593
131.85,-5.713593
131.9,-5.713593
131.95,-5.713593
132,-5.713593
132.05,-5.713593
132.1,-5.713593
132.15,-5.713593
132.2,-5.713593
132.25,-5.713593
132.3,-5.713593
132.35,-5.713593
132.4,-5.713593
132.45,-5.713593
132.5,-5.713593
132.55,-5.713593
132.6,-5.713593
132.65,-5.713593
132.7,-5.713593
132.75,-5.713593
132.8,-5.713593
132.85,-5.713593
132.9,-5.713593
132.95,-5.713593
133,-5.713593
133.05,-5.713593
133.1,-5.713593
133.15,-5.713593
133.2,-5.713593
133.25,-5.713593
133.3,-5.713593
133.35,-5.713593
133.4,-5.713593
133.45,-5.713593
133.5,-5.713593
133.55,-5.713593
133.6,-5.713593
133.65,-5.713593
133.7,-5.713593
133.75,-5.713593
133.8,-5.713593
133.85,-5.713593
133.9,-5.713593
133.95,-5.713593
134,-5.713593
134.05,-5.713593
134.1,-5.713593
134.15,-5.713593
134.2,-5.713593
134.25,-5.713593
134.3,-5.713593
134.35,-5.713593
134.4,-5.713593
134.45,-5.713593
134.5,-5.713593
134.55,-5.713593
134.6,-5.713593
134.65,-5.713593
134.7,-5.713593
134.75,-5.713593
134.8,-5.713593
134.85,-5.713593
134.9,-5.713593
134.95,-5.713593
135,-5.713593
135.05,-5.713593
135.1,-5.713593
135.15,-5.713593
135.2,-5.713593
135.25,-5.713593
135.3,-5.713593
135.35,-5.713593
135.4,-5.713593
135.45,-5.713593
135.5,-5.713593
135.55,-5.713593
135.6,-5.713593
135.65,-5.713593
135.7,-5.713593
135.75,-5.713593
135.8,-5.713593
135.85,-5.713593
135.9,-5.713593
135.95,-5.713593
136,-5.713593
136.05,-5.713593
136.1,-5.713593
136.15,-5.713593
136.2,-5.713593
136.25,-5.713593
136.3,-5.713593
136.35,-5.713593
136.4,-5.713593
136.45,-5.713593
136.5,-5.713593
136.55,-5.713593
136.6,-5.713593
136.65,-5.713593
136.7,-5.713593
136.75,-5.713593
136.8,-5.713593
136.85,-5.713593
136.9,-5.713593
136.95,-5.713593
137,-5.713593
137.05,-5.713593
137.1,-5.713593
137.15,-5.713593
137.2,-5.713593
137.25,-5.713593
137.3,-5.713593
137.35,-5.713593
137.4,-5.713593
137.45,-5.713593
137.5,-5.713593
137.55,-5.713593
137.6,-5.713593
137.65,-5.713593
137.7,-5.713593
137.75,-5.713593
137.8,-5.713593
137.85,-5.713593
137.9,-5.713593
137.95,-5.713593
138,-5.713593
 
Alignment,On
