Data File Name,Nextera3_JLC_High Sensitivity DNA Assay_DE24802700_2016-10-13_13-55-37.xad
Data File Path,C:\Users\jlchiniquy\Desktop\20171205_Nextera_library_size_to_loading_concentration_tool\JLChiniquy
Date Created,"Thursday, October 13, 2016 8:55:37 PM"
Date Last Modified,"Thursday, November 16, 2017 8:08:43 PM"
Version Created,B.02.07.SI532
Version Last Modified,B.02.08.SI648
 
Assay Name,High Sensitivity DNA
Assay Path,C:\Program Files\Agilent\2100 bioanalyzer\2100 expert\assays\dsDNA
Assay Title,High Sensitivity DNA Assay
Assay Version,1.0
 
Number of Samples Run,9
 
Sample Name,Ladder
Number of Events,2121
 
Time,Value
32,-8.670044E-02
32.05,-8.670044E-02
32.1,-8.670044E-02
32.15,-8.670044E-02
32.2,-8.670044E-02
32.25,-8.670044E-02
32.3,-2.307233E-03
32.35,9.09147E-05
32.4,3.613442E-03
32.45,-4.052621E-02
32.5,-0.1425048
32.55,-0.1837203
32.6,-0.1900606
32.65,-8.732299E-02
32.7,3.554032E-02
32.75,8.429576E-02
32.8,0.1032408
32.85,3.493589E-02
32.9,-2.654332E-02
32.95,1.752306E-02
33,8.715638E-02
33.05,0.105369
33.1,0.1283828
33.15,9.241596E-02
33.2,7.287725E-02
33.25,3.867102E-02
33.3,-2.093803E-03
33.35,4.741753E-02
33.4,3.390835E-02
33.45,6.219096E-02
33.5,0.1466311
33.55,0.1770655
33.6,0.1634476
33.65,7.987726E-02
33.7,9.169596E-02
33.75,0.1518299
33.8,0.1153787
33.85,0.179314
33.9,0.2407156
33.95,0.1612048
34,-7.871055E-04
34.05,-1.437316E-02
34.1,-1.881568E-02
34.15,3.367921E-03
34.2,6.673193E-02
34.25,0.1427562
34.3,0.1380159
34.35,5.248282E-02
34.4,6.529058E-03
34.45,2.919481E-02
34.5,-2.427724E-02
34.55,-2.775369E-02
34.6,4.641283E-02
34.65,2.476919E-02
34.7,-2.989591E-02
34.75,-3.029673E-02
34.8,-6.258995E-02
34.85,-5.508462E-02
34.9,-2.074981E-02
34.95,-3.782482E-02
35,-8.151579E-03
35.05,-2.301371E-02
35.1,2.189936E-02
35.15,7.989687E-02
35.2,9.755779E-02
35.25,0.1302263
35.3,0.1225925
35.35,0.0908305
35.4,9.732111E-02
35.45,7.499483E-02
35.5,5.989454E-02
35.55,6.597412E-02
35.6,0.1052052
35.65,0.1280646
35.7,9.804333E-02
35.75,0.0542371
35.8,1.282101E-02
35.85,1.571819E-02
35.9,4.209162E-02
35.95,6.180186E-02
36,0.0874939
36.05,5.365034E-02
36.1,8.863477E-03
36.15,3.430333E-02
36.2,7.936379E-02
36.25,0.1284681
36.3,0.1548308
36.35,0.1873404
36.4,0.2221033
36.45,0.1881537
36.5,0.175893
36.55,0.1786575
36.6,0.1727722
36.65,0.2021884
36.7,0.2517708
36.75,0.2384842
36.8,0.1684598
36.85,3.614002E-02
36.9,-7.757054E-02
36.95,-0.1439695
37,-0.1354617
37.05,-0.1157129
37.1,-0.1100149
37.15,-0.1139351
37.2,-7.093616E-02
37.25,-6.315372E-02
37.3,-8.125439E-02
37.35,-2.932829E-02
37.4,1.897049E-02
37.45,6.193055E-02
37.5,6.940395E-02
37.55,5.300305E-02
37.6,3.305636E-02
37.65,7.170764E-02
37.7,8.434356E-02
37.75,0.1768566
37.8,0.2168826
37.85,0.2241371
37.9,0.1696274
37.95,0.0952959
38,0.1592345
38.05,0.2253466
38.1,0.2323462
38.15,0.2148615
38.2,0.1937593
38.25,0.2725578
38.3,0.2684287
38.35,0.235974
38.4,0.308248
38.45,0.3501048
38.5,0.3384229
38.55,0.2606303
38.6,0.2270158
38.65,0.1697331
38.7,0.1314875
38.75,0.1266668
38.8,0.1796672
38.85,0.2249825
38.9,0.1627205
38.95,9.998311E-02
39,1.513647E-02
39.05,-3.441941E-02
39.1,-7.211045E-03
39.15,-4.381827E-02
39.2,4.884776E-03
39.25,0.0210366
39.3,-6.935976E-03
39.35,-1.849232E-02
39.4,-8.320046E-02
39.45,-9.919158E-02
39.5,-0.1391421
39.55,-0.1742103
39.6,-0.1348234
39.65,-0.1549838
39.7,-0.1935014
39.75,-0.1947795
39.8,-0.1621352
39.85,-0.1283735
39.9,-8.513059E-02
39.95,-6.875648E-02
40,-0.1264863
40.05,-0.2628961
40.1,-0.2813443
40.15,-0.2216346
40.2,-0.130246
40.25,-4.606953E-02
40.3,-1.000473E-02
40.35,-2.729508E-02
40.4,-7.589316E-03
40.45,-4.283116E-02
40.5,-0.1069727
40.55,-0.1679001
40.6,-0.2164968
40.65,-0.2184289
40.7,-0.1496302
40.75,-3.851972E-02
40.8,4.895574E-02
40.85,3.819824E-02
40.9,-1.730894E-02
40.95,-2.184549E-02
41,-2.890294E-02
41.05,2.914996E-02
41.1,8.156065E-02
41.15,0.1029942
41.2,7.723424E-02
41.25,3.804368E-03
41.3,-5.778603E-02
41.35,-5.423437E-02
41.4,-2.881005E-02
41.45,3.782523E-02
41.5,0.0120971
41.55,-0.0430833
41.6,-8.889788E-02
41.65,-0.15084
41.7,-9.904201E-02
41.75,-6.397053E-02
41.8,-5.204482E-02
41.85,-6.680359E-02
41.9,-7.207645E-02
41.95,-0.1373719
42,-0.1569282
42.05,-0.2669278
42.1,-0.2521807
42.15,-0.2541726
42.2,-0.1814562
42.25,-0.1219314
42.3,-0.111439
42.35,-0.1606318
42.4,-6.052476E-02
42.45,1.606902E-02
42.5,0.5208335
42.55,1.719767
42.6,4.261579
42.65,8.788562
42.7,15.83635
42.75,25.89971
42.8,39.15509
42.85,53.57279
42.9,66.81226
42.95,76.46207
43,80.52695
43.05,77.52547
43.1,68.23448
43.15,54.8367
43.2,40.51279
43.25,27.21242
43.3,16.796
43.35,9.98011
43.4,6.074996
43.45,4.107424
43.5,3.280596
43.55,2.931978
43.6,2.912156
43.65,2.812581
43.7,2.635521
43.75,2.504047
43.8,2.320909
43.85,2.168236
43.9,2.018506
43.95,1.846156
44,1.684405
44.05,1.526924
44.1,1.417718
44.15,1.383386
44.2,1.334699
44.25,1.38632
44.3,1.457661
44.35,1.534077
44.4,1.571087
44.45,1.501534
44.5,1.40525
44.55,1.298684
44.6,1.200617
44.65,1.228925
44.7,1.426682
44.75,1.760226
44.8,2.293722
44.85,3.23267
44.9,5.095259
44.95,8.739939
45,15.44932
45.05,27.00307
45.1,44.3715
45.15,67.5612
45.2,95.28857
45.25,123.4866
45.3,146.5185
45.35,159.3768
45.4,158.9725
45.45,145.2413
45.5,121.1804
45.55,92.2047
45.6,64.27172
45.65,41.3214
45.7,24.92216
45.75,14.89126
45.8,9.567704
45.85,6.95324
45.9,5.656102
45.95,4.924021
46,4.450393
46.05,4.129677
46.1,3.768526
46.15,3.430293
46.2,3.125682
46.25,2.846438
46.3,2.64974
46.35,2.463605
46.4,2.237838
46.45,2.094134
46.5,1.948749
46.55,1.757174
46.6,1.464491
46.65,1.190564
46.7,0.9913419
46.75,0.7781432
46.8,0.6546081
46.85,0.6038785
46.9,0.5271315
46.95,0.5001736
47,0.4229967
47.05,0.3918608
47.1,0.4098296
47.15,0.3098647
47.2,0.2874295
47.25,0.2442843
47.3,0.1870945
47.35,0.1454956
47.4,0.1689562
47.45,0.1036397
47.5,5.782463E-02
47.55,-4.595049E-02
47.6,-3.650146E-02
47.65,-6.649245E-02
47.7,-0.1483629
47.75,-0.1499154
47.8,-0.1509259
47.85,-0.2099274
47.9,-0.2442333
47.95,-0.2857702
48,-0.2986322
48.05,-0.3414093
48.1,-0.3412105
48.15,-0.2702915
48.2,-0.2126671
48.25,-0.1272956
48.3,-0.1566318
48.35,-0.2487174
48.4,-0.3430114
48.45,-0.3703815
48.5,-0.3363983
48.55,-0.2385283
48.6,-0.204822
48.65,-0.1953938
48.7,-0.2404852
48.75,-0.264235
48.8,-0.2796408
48.85,-0.2966098
48.9,-0.3038024
48.95,-0.3128372
49,-0.308509
49.05,-0.3282831
49.1,-0.3815517
49.15,-0.4794086
49.2,-0.6174163
49.25,-0.7103954
49.3,-0.7552151
49.35,-0.6731398
49.4,-0.5384673
49.45,-0.4095807
49.5,-0.3277437
49.55,-0.346386
49.6,-0.488072
49.65,-0.6328462
49.7,-0.7247717
49.75,-0.6897113
49.8,-0.5930499
49.85,-0.505711
49.9,-0.4975461
49.95,-0.5877627
50,-0.7029371
50.05,-0.7558118
50.1,-0.774774
50.15,-0.8079141
50.2,-0.809733
50.25,-0.8169529
50.3,-0.8313332
50.35,-0.8146906
50.4,-0.6501833
50.45,-7.740919E-02
50.5,1.570151
50.55,5.769245
50.6,14.47393
50.65,29.52725
50.7,52.3824
50.75,82.6003
50.8,116.6612
50.85,148.1705
50.9,169.7277
50.95,175.7404
51,164.8505
51.05,140.2335
51.1,108.4508
51.15,76.62166
51.2,50.26698
51.25,31.46064
51.3,19.67865
51.35,13.1734
51.4,9.930145
51.45,8.055954
51.5,6.743804
51.55,5.808095
51.6,5.207471
51.65,4.617333
51.7,4.129763
51.75,3.804896
51.8,3.530736
51.85,3.18357
51.9,2.975718
51.95,2.673813
52,2.327976
52.05,1.951601
52.1,1.657647
52.15,1.244231
52.2,0.8611701
52.25,0.4952488
52.3,0.2143843
52.35,0.1141519
52.4,5.861397E-02
52.45,2.069599E-02
52.5,-2.367625E-02
52.55,-0.1510874
52.6,-0.1750498
52.65,-0.1820634
52.7,-0.1497637
52.75,-8.164598E-02
52.8,-6.255198E-02
52.85,7.469984E-02
52.9,0.2303241
52.95,0.4358271
53,0.4658639
53.05,0.2773479
53.1,5.756544E-02
53.15,-0.1970951
53.2,-0.4291131
53.25,-0.5307119
53.3,-0.5821782
53.35,-0.5002862
53.4,-0.5261361
53.45,-0.5248681
53.5,-0.4101039
53.55,-0.2747231
53.6,-8.502721E-02
53.65,0.1427943
53.7,0.3385341
53.75,0.4461984
53.8,0.4162298
53.85,0.3796483
53.9,0.3277906
53.95,0.1611595
54,-0.1433255
54.05,-0.48543
54.1,-0.7472187
54.15,-0.9276222
54.2,-1.010281
54.25,-1.004726
54.3,-1.040661
54.35,-1.179779
54.4,-1.329925
54.45,-1.402279
54.5,-1.3805
54.55,-1.324665
54.6,-1.305908
54.65,-1.34621
54.7,-1.445712
54.75,-1.549658
54.8,-1.603481
54.85,-1.626159
54.9,-1.63066
54.95,-1.645902
55,-1.66793
55.05,-1.609694
55.1,-1.451485
55.15,-1.086346
55.2,8.121187E-02
55.25,3.234472
55.3,10.42133
55.35,24.51987
55.4,47.68531
55.45,80.75186
55.5,121.2916
55.55,163.3716
55.6,199.61
55.65,221.1403
55.7,223.0198
55.75,205.0978
55.8,171.7752
55.85,131.6521
55.9,92.84003
55.95,61.35698
56,39.74418
56.05,26.13758
56.1,18.63854
56.15,14.35467
56.2,11.55183
56.25,9.554818
56.3,7.988613
56.35,6.816007
56.4,5.803032
56.45,4.884515
56.5,4.198053
56.55,3.62149
56.6,3.143205
56.65,2.664998
56.7,2.249995
56.75,1.910124
56.8,1.717707
56.85,1.575389
56.9,1.444598
56.95,1.277785
57,0.9128876
57.05,0.5716746
57.1,0.237808
57.15,-1.788471E-02
57.2,-0.3175006
57.25,-0.5076855
57.3,-0.5509108
57.35,-0.5369187
57.4,-0.5949629
57.45,-0.6575248
57.5,-0.8292666
57.55,-1.041304
57.6,-1.249132
57.65,-1.3803
57.7,-1.475577
57.75,-1.564228
57.8,-1.692207
57.85,-1.817526
57.9,-1.9705
57.95,-2.098003
58,-2.179248
58.05,-2.216813
58.1,-2.203527
58.15,-2.158043
58.2,-2.117885
58.25,-2.08084
58.3,-2.072556
58.35,-2.055308
58.4,-2.073352
58.45,-2.12681
58.5,-2.176948
58.55,-2.217437
58.6,-2.272031
58.65,-2.255288
58.7,-2.204587
58.75,-2.181303
58.8,-2.156367
58.85,-2.129294
58.9,-2.122673
58.95,-2.129638
59,-2.129035
59.05,-2.133168
59.1,-2.189442
59.15,-2.283912
59.2,-2.345
59.25,-2.332011
59.3,-2.276411
59.35,-2.167295
59.4,-2.067438
59.45,-2.026234
59.5,-1.986057
59.55,-2.016681
59.6,-2.102455
59.65,-2.128695
59.7,-2.164585
59.75,-2.219202
59.8,-2.110613
59.85,-1.311068
59.9,1.227089
59.95,7.09583
60,18.81047
60.05,38.52658
60.1,67.79681
60.15,105.7137
60.2,147.3431
60.25,186.2394
60.3,215.3147
60.35,228.2992
60.4,222.438
60.45,200.0127
60.5,166.2822
60.55,128.4467
60.6,92.86112
60.65,64.66798
60.7,45.22631
60.75,33.13271
60.8,26.12359
60.85,21.85893
60.9,18.5813
60.95,16.30883
61,14.33165
61.05,12.75753
61.1,11.52981
61.15,10.45041
61.2,9.325104
61.25,7.943752
61.3,6.952181
61.35,6.167116
61.4,5.371795
61.45,4.676489
61.5,4.108632
61.55,3.605553
61.6,3.116098
61.65,2.563037
61.7,2.009596
61.75,1.466934
61.8,0.8852341
61.85,0.4501164
61.9,0.2722355
61.95,0.180548
62,0.1251391
62.05,-4.299689E-02
62.1,-0.268484
62.15,-0.4721447
62.2,-0.7858359
62.25,-1.06479
62.3,-1.402595
62.35,-1.554814
62.4,-1.610347
62.45,-1.691673
62.5,-1.816048
62.55,-1.925481
62.6,-2.149646
62.65,-2.331591
62.7,-2.429139
62.75,-2.409746
62.8,-2.423868
62.85,-2.45178
62.9,-2.46695
62.95,-2.536199
63,-2.695158
63.05,-2.803344
63.1,-2.852981
63.15,-2.830468
63.2,-2.775008
63.25,-2.694666
63.3,-2.636322
63.35,-2.69274
63.4,-2.764884
63.45,-2.793259
63.5,-2.800314
63.55,-2.762466
63.6,-2.739691
63.65,-2.755646
63.7,-2.783011
63.75,-2.869363
63.8,-2.923842
63.85,-2.966161
63.9,-3.012846
63.95,-2.994349
64,-2.95108
64.05,-2.876521
64.1,-2.76318
64.15,-2.659013
64.2,-2.578201
64.25,-2.62486
64.3,-2.732207
64.35,-2.767167
64.4,-2.833025
64.45,-2.850587
64.5,-2.815651
64.55,-2.802486
64.6,-2.828509
64.65,-2.849894
64.7,-2.838679
64.75,-2.824096
64.8,-2.874349
64.85,-2.883743
64.9,-2.909374
64.95,-2.941802
65,-2.99277
65.05,-3.04023
65.1,-3.114095
65.15,-3.214652
65.2,-3.288635
65.25,-3.303537
65.3,-3.302363
65.35,-3.245432
65.4,-3.20256
65.45,-3.083533
65.5,-3.030323
65.55,-3.122759
65.6,-3.176872
65.65,-3.256712
65.7,-3.340817
65.75,-3.31834
65.8,-3.255166
65.85,-3.207239
65.9,-3.206789
65.95,-3.327138
66,-3.288714
66.05,-3.306983
66.1,-3.299695
66.15,-3.2862
66.2,-3.328913
66.25,-3.416769
66.3,-3.37127
66.35,-3.32246
66.4,-3.303553
66.45,-3.313281
66.5,-3.278153
66.55,-3.313758
66.6,-3.261303
66.65,-3.175281
66.7,-3.126836
66.75,-3.182131
66.8,-3.306627
66.85,-3.344937
66.9,-3.351862
66.95,-3.425518
67,-3.419553
67.05,-3.404083
67.1,-3.419314
67.15,-3.372643
67.2,-3.282492
67.25,-3.241475
67.3,-3.283579
67.35,-3.328176
67.4,-3.301036
67.45,-3.280758
67.5,-3.303833
67.55,-3.293262
67.6,-3.266058
67.65,-3.3195
67.7,-3.351431
67.75,-3.30804
67.8,-3.308198
67.85,-3.334075
67.9,-3.416868
67.95,-3.447417
68,-3.465982
68.05,-3.492744
68.1,-3.488932
68.15,-3.52116
68.2,-3.586129
68.25,-3.623616
68.3,-3.682984
68.35,-3.671715
68.4,-3.621782
68.45,-3.590637
68.5,-3.581471
68.55,-3.608386
68.6,-3.611759
68.65,-3.648695
68.7,-3.723288
68.75,-3.708486
68.8,-3.624383
68.85,-3.412645
68.9,-2.811122
68.95,-0.9381449
69,3.626603
69.05,12.71029
69.1,28.2445
69.15,51.13853
69.2,81.86329
69.25,119.3294
69.3,160.4387
69.35,200.4282
69.4,233.3226
69.45,254.0583
69.5,259.9
69.55,249.4846
69.6,225.9496
69.65,193.7439
69.7,158.1056
69.75,124.0612
69.8,94.63227
69.85,71.93624
69.9,55.06067
69.95,42.76707
70,34.5075
70.05,28.6771
70.1,24.45372
70.15,21.48913
70.2,19.21606
70.25,17.50082
70.3,15.74573
70.35,14.32275
70.4,12.90281
70.45,11.4813
70.5,10.44636
70.55,9.471291
70.6,8.719383
70.65,8.101867
70.7,7.238327
70.75,6.253093
70.8,5.278879
70.85,4.283551
70.9,3.573083
70.95,2.7603
71,2.280029
71.05,1.803095
71.1,1.231002
71.15,0.8243449
71.2,0.5955976
71.25,0.5408378
71.3,0.523921
71.35,0.107279
71.4,-0.3606068
71.45,-0.9806709
71.5,-1.406642
71.55,-1.654715
71.6,-1.764735
71.65,-1.862114
71.7,-1.980405
71.75,-2.210946
71.8,-2.380733
71.85,-2.544844
71.9,-2.679867
71.95,-2.901492
72,-3.025366
72.05,-3.058166
72.1,-3.069707
72.15,-3.115423
72.2,-3.108145
72.25,-3.170561
72.3,-3.346549
72.35,-3.483352
72.4,-3.524897
72.45,-3.622873
72.5,-3.702374
72.55,-3.672834
72.6,-3.597264
72.65,-3.617104
72.7,-3.654156
72.75,-3.65682
72.8,-3.703983
72.85,-3.773758
72.9,-3.814502
72.95,-3.870511
73,-3.982508
73.05,-4.116457
73.1,-4.146082
73.15,-4.121789
73.2,-4.172152
73.25,-4.224525
73.3,-4.267694
73.35,-4.355327
73.4,-4.416808
73.45,-4.415649
73.5,-4.389532
73.55,-4.454456
73.6,-4.594715
73.65,-4.602739
73.7,-4.527951
73.75,-4.45851
73.8,-4.36781
73.85,-4.361003
73.9,-4.438187
73.95,-4.549528
74,-4.627458
74.05,-4.583797
74.1,-4.548847
74.15,-4.531773
74.2,-4.535488
74.25,-4.584436
74.3,-4.573813
74.35,-4.571798
74.4,-4.590995
74.45,-4.581034
74.5,-4.635544
74.55,-4.676045
74.6,-4.710701
74.65,-4.673382
74.7,-4.626438
74.75,-4.667531
74.8,-4.720257
74.85,-4.671968
74.9,-4.59792
74.95,-4.548517
75,-4.474506
75.05,-4.471331
75.1,-4.607543
75.15,-4.740225
75.2,-4.804633
75.25,-4.768188
75.3,-4.858049
75.35,-4.926084
75.4,-4.80379
75.45,-4.708881
75.5,-4.57018
75.55,-4.400131
75.6,-4.371735
75.65,-4.421777
75.7,-4.474074
75.75,-4.479702
75.8,-4.62105
75.85,-4.703544
75.9,-4.766887
75.95,-4.750589
76,-4.817227
76.05,-4.825488
76.1,-4.787916
76.15,-4.730722
76.2,-4.745441
76.25,-4.7248
76.3,-4.768416
76.35,-4.865577
76.4,-4.976012
76.45,-5.0386
76.5,-5.069513
76.55,-4.980397
76.6,-4.947751
76.65,-4.930905
76.7,-4.87628
76.75,-4.857798
76.8,-4.797423
76.85,-4.552709
76.9,-3.750463
76.95,-1.676175
77,2.552636
77.05,9.910243
77.1,22.14841
77.15,40.52282
77.2,66.22402
77.25,98.42801
77.3,136.0321
77.35,176.0449
77.4,214.3505
77.45,245.8383
77.5,268.1365
77.55,278.78
77.6,276.903
77.65,262.342
77.7,238.1407
77.75,207.6414
77.8,174.5568
77.85,142.4194
77.9,114.1234
77.95,90.60775
78,71.93759
78.05,58.02945
78.1,47.98027
78.15,40.62489
78.2,35.11924
78.25,31.05008
78.3,27.41713
78.35,24.23694
78.4,21.66651
78.45,19.72512
78.5,17.86438
78.55,15.93657
78.6,14.25462
78.65,12.81318
78.7,11.1448
78.75,9.628993
78.8,8.540427
78.85,7.558673
78.9,6.564393
78.95,5.519643
79,4.592493
79.05,3.665079
79.1,2.69462
79.15,1.896325
79.2,1.188986
79.25,0.600527
79.3,0.1149946
79.35,-0.3313099
79.4,-0.4854553
79.45,-0.6703762
79.5,-0.8499589
79.55,-1.1207
79.6,-1.426555
79.65,-1.62984
79.7,-1.961238
79.75,-2.206162
79.8,-2.296108
79.85,-2.541201
79.9,-2.789212
79.95,-3.124865
80,-3.355325
80.05,-3.402239
80.1,-3.546263
80.15,-3.559654
80.2,-3.647776
80.25,-3.692538
80.3,-3.736148
80.35,-3.93035
80.4,-3.94326
80.45,-4.065199
80.5,-4.15203
80.55,-4.182435
80.6,-4.198248
80.65,-4.149142
80.7,-4.139449
80.75,-4.257986
80.8,-4.361273
80.85,-4.493939
80.9,-4.619163
80.95,-4.625773
81,-4.590616
81.05,-4.540104
81.1,-4.508136
81.15,-4.480788
81.2,-4.617599
81.25,-4.821535
81.3,-5.021659
81.35,-5.046479
81.4,-5.029478
81.45,-5.018839
81.5,-4.963501
81.55,-4.963362
81.6,-5.027323
81.65,-5.108696
81.7,-5.215082
81.75,-5.239357
81.8,-5.257414
81.85,-5.278113
81.9,-5.226606
81.95,-5.19951
82,-5.187035
82.05,-5.246701
82.1,-5.32915
82.15,-5.30598
82.2,-5.204453
82.25,-5.100296
82.3,-5.024651
82.35,-4.990851
82.4,-5.014197
82.45,-4.954886
82.5,-4.515566
82.55,-3.30793
82.6,-0.7896223
82.65,3.462039
82.7,10.09124
82.75,20.29523
82.8,34.95769
82.85,54.46818
82.9,78.91522
82.95,108.4538
83,141.9818
83.05,175.8384
83.1,206.8811
83.15,232.7743
83.2,250.5337
83.25,258.1186
83.3,255.0681
83.35,242.9706
83.4,224.5244
83.45,200.7514
83.5,175.6824
83.55,151.9504
83.6,129.6823
83.65,110.3454
83.7,94.45809
83.75,81.81646
83.8,71.94593
83.85,63.54715
83.9,56.9872
83.95,51.72102
84,46.69669
84.05,43.47345
84.1,40.60913
84.15,37.19075
84.2,33.8503
84.25,30.8737
84.3,27.93758
84.35,25.53675
84.4,22.9816
84.45,21.01584
84.5,18.81401
84.55,16.98199
84.6,15.31374
84.65,13.39678
84.7,11.51059
84.75,10.22073
84.8,8.942367
84.85,7.967763
84.9,7.292902
84.95,6.47206
85,5.326202
85.05,4.112634
85.1,2.979522
85.15,2.19342
85.2,1.581874
85.25,1.02611
85.3,0.8057465
85.35,0.580362
85.4,0.4182224
85.45,-2.929716E-02
85.5,-0.3709584
85.55,-0.5722967
85.6,-0.8790738
85.65,-1.374456
85.7,-1.711488
85.75,-1.947085
85.8,-2.153954
85.85,-2.432838
85.9,-2.554875
85.95,-2.735249
86,-2.919204
86.05,-3.193779
86.1,-3.174309
86.15,-3.155638
86.2,-3.255192
86.25,-3.352955
86.3,-3.446782
86.35,-3.552115
86.4,-3.722152
86.45,-3.84884
86.5,-3.832036
86.55,-3.848528
86.6,-3.823539
86.65,-3.86092
86.7,-4.031196
86.75,-4.231199
86.8,-4.411136
86.85,-4.480131
86.9,-4.466057
86.95,-4.149969
87,-3.525375
87.05,-2.398361
87.1,-8.182473E-02
87.15,3.749189
87.2,9.870768
87.25,19.74213
87.3,34.14917
87.35,53.77354
87.4,78.47507
87.45,107.5276
87.5,140.7294
87.55,176.4426
87.6,212.5756
87.65,247.1354
87.7,275.9214
87.75,295.0976
87.8,304.6627
87.85,305.1697
87.9,296.4519
87.95,280.7402
88,259.9953
88.05,236.0981
88.1,209.6346
88.15,183.0458
88.2,158.6864
88.25,137.8978
88.3,119.3056
88.35,104.5187
88.4,91.98818
88.45,81.71082
88.5,72.88857
88.55,65.39323
88.6,58.53049
88.65,53.65571
88.7,48.52033
88.75,43.15432
88.8,37.95301
88.85,33.28158
88.9,29.09026
88.95,25.44968
89,22.31131
89.05,20.00538
89.1,17.12323
89.15,14.56612
89.2,12.62287
89.25,10.9423
89.3,9.932924
89.35,8.782278
89.4,7.149046
89.45,5.788893
89.5,4.248639
89.55,2.984061
89.6,2.119756
89.65,1.616572
89.7,1.040129
89.75,0.5560828
89.8,0.1864268
89.85,4.116719E-02
89.9,-0.312064
89.95,-0.553989
90,-0.7950863
90.05,-0.9932186
90.1,-1.186563
90.15,-0.7951401
90.2,7.936802E-02
90.25,2.079235
90.3,5.853329
90.35,11.7035
90.4,20.17076
90.45,32.42705
90.5,48.93727
90.55,70.21835
90.6,95.83745
90.65,126.2858
90.7,158.1223
90.75,189.0391
90.8,218.4321
90.85,245.3612
90.9,267.3911
90.95,283.0739
91,289.5567
91.05,288.3901
91.1,279.5498
91.15,264.0341
91.2,245.6774
91.25,225.0941
91.3,202.9602
91.35,180.8104
91.4,158.9948
91.45,140.2268
91.5,123.4026
91.55,108.7151
91.6,96.9632
91.65,86.51005
91.7,77.41628
91.75,69.20152
91.8,61.76494
91.85,55.54441
91.9,49.81131
91.95,45.00568
92,40.73672
92.05,36.28265
92.1,32.02487
92.15,27.95234
92.2,24.60198
92.25,22.19785
92.3,20.38584
92.35,18.78978
92.4,16.96215
92.45,14.92476
92.5,12.77219
92.55,10.83702
92.6,9.2594
92.65,8.128379
92.7,7.046142
92.75,5.919507
92.8,5.009502
92.85,4.321023
92.9,3.714982
92.95,3.286649
93,3.049217
93.05,2.692984
93.1,2.100888
93.15,1.569108
93.2,0.9695367
93.25,0.4496417
93.3,-5.643917E-02
93.35,-0.304339
93.4,-0.2697906
93.45,-0.2000653
93.5,-1.192392E-03
93.55,0.1168201
93.6,-0.1991137
93.65,-0.5908236
93.7,-1.134403
93.75,-1.550776
93.8,-1.809192
93.85,-1.922158
93.9,-1.916428
93.95,-1.974553
94,-1.785516
94.05,-1.534767
94.1,-0.8017886
94.15,-7.968887E-02
94.2,2.049181
94.25,5.998595
94.3,11.4743
94.35,19.59603
94.4,29.86319
94.45,45.10202
94.5,64.55335
94.55,87.11121
94.6,112.1891
94.65,139.9352
94.7,170.8014
94.75,199.3735
94.8,227.3516
94.85,252.5555
94.9,272.7827
94.95,286.7267
95,296.0575
95.05,301.7041
95.1,301.3272
95.15,292.864
95.2,281.3028
95.25,265.8431
95.3,248.5032
95.35,228.3403
95.4,208.0706
95.45,187.4215
95.5,167.1127
95.55,148.5092
95.6,133.1152
95.65,119.4852
95.7,107.1284
95.75,95.37797
95.8,85.24171
95.85,76.13644
95.9,67.4779
95.95,59.52131
96,52.46207
96.05,46.55019
96.1,41.86654
96.15,37.97521
96.2,34.62538
96.25,30.85247
96.3,26.62881
96.35,22.6621
96.4,19.1484
96.45,16.52503
96.5,14.56893
96.55,13.19357
96.6,12.19398
96.65,10.91081
96.7,9.711061
96.75,8.688123
96.8,7.690893
96.85,6.963354
96.9,6.22909
96.95,5.314087
97,4.250642
97.05,3.30491
97.1,2.803766
97.15,2.382935
97.2,1.85884
97.25,1.316423
97.3,0.6788949
97.35,0.1596505
97.4,-6.941197E-02
97.45,-1.477568E-02
97.5,-0.1024311
97.55,-0.3414394
97.6,-0.5129816
97.65,-0.7134404
97.7,-0.7685764
97.75,-0.7140287
97.8,-1.064815
97.85,-1.487173
97.9,-1.94026
97.95,-2.196594
98,-2.188423
98.05,-2.252841
98.1,-2.115211
98.15,-2.02945
98.2,-1.937524
98.25,-1.959387
98.3,-1.975664
98.35,-2.035283
98.4,-1.976918
98.45,-2.017015
98.5,-1.878827
98.55,-1.674771
98.6,-1.798424
98.65,-2.196716
98.7,-2.611099
98.75,-2.907672
98.8,-2.836356
98.85,-2.555322
98.9,-2.208644
98.95,-2.036746
99,-2.257767
99.05,-2.473282
99.1,-2.671714
99.15,-2.728083
99.2,-2.486856
99.25,-2.124545
99.3,-2.196364
99.35,-2.43669
99.4,-2.730639
99.45,-3.053442
99.5,-3.139075
99.55,-3.129292
99.6,-2.903049
99.65,-2.744521
99.7,-2.788369
99.75,-2.690372
99.8,-2.569102
99.85,-2.391983
99.9,-2.132828
99.95,-2.279638
100,-2.419059
100.05,-2.425296
100.1,-2.546061
100.15,-2.540286
100.2,-2.663105
100.25,-2.756353
100.3,-2.643403
100.35,-2.396695
100.4,-1.799405
100.45,-0.8814206
100.5,0.4360147
100.55,2.880009
100.6,6.300329
100.65,12.19386
100.7,21.45696
100.75,33.63638
100.8,49.64769
100.85,70.6717
100.9,96.95982
100.95,128.9748
101,164.8788
101.05,202.683
101.1,241.3315
101.15,277.5244
101.2,309.7756
101.25,339.1154
101.3,364.7531
101.35,384.3094
101.4,396.1292
101.45,400.8563
101.5,397.4888
101.55,384.3832
101.6,364.2263
101.65,339.8354
101.7,311.3265
101.75,280.6676
101.8,252.2621
101.85,225.9711
101.9,199.9978
101.95,175.8159
102,154.7445
102.05,135.6917
102.1,119.9831
102.15,105.6838
102.2,92.25075
102.25,78.30031
102.3,65.89841
102.35,55.79528
102.4,47.93393
102.45,42.33677
102.5,38.78358
102.55,34.34506
102.6,30.48204
102.65,26.63611
102.7,22.82559
102.75,18.94069
102.8,16.14682
102.85,14.04589
102.9,12.59237
102.95,11.34181
103,9.664825
103.05,7.793625
103.1,5.618007
103.15,4.166553
103.2,3.542933
103.25,3.377138
103.3,3.658402
103.35,3.758026
103.4,3.154333
103.45,3.111572
103.5,2.864207
103.55,3.085173
103.6,3.987988
103.65,4.930638
103.7,6.515233
103.75,9.609595
103.8,14.80865
103.85,22.68342
103.9,34.76417
103.95,52.16079
104,75.5316
104.05,101.4278
104.1,133.1565
104.15,170.1986
104.2,211.0051
104.25,249.3849
104.3,287.4913
104.35,324.9954
104.4,356.0288
104.45,380.9249
104.5,403.9092
104.55,417.9369
104.6,423.1617
104.65,416.3205
104.7,406.0722
104.75,391.9863
104.8,371.9503
104.85,351.0937
104.9,328.8145
104.95,299.9164
105,267.8594
105.05,232.6124
105.1,199.9556
105.15,172.6244
105.2,150.204
105.25,131.6656
105.3,115.0373
105.35,98.57748
105.4,83.28324
105.45,68.7533
105.5,56.6189
105.55,48.47568
105.6,42.13116
105.65,37.11459
105.7,33.37122
105.75,30.12742
105.8,26.79759
105.85,23.44522
105.9,20.67823
105.95,18.92713
106,17.15873
106.05,15.40772
106.1,14.14244
106.15,13.00039
106.2,12.06612
106.25,11.61295
106.3,11.25489
106.35,9.940176
106.4,8.13704
106.45,6.315077
106.5,5.22749
106.55,4.764808
106.6,4.805675
106.65,5.096112
106.7,5.463499
106.75,5.37276
106.8,5.429388
106.85,5.433177
106.9,4.607071
106.95,3.86181
107,3.705165
107.05,3.921674
107.1,4.066644
107.15,3.800544
107.2,3.815594
107.25,3.487447
107.3,2.402869
107.35,1.692987
107.4,0.8623413
107.45,0.4541487
107.5,0.4631201
107.55,1.053092
107.6,1.549548
107.65,1.503751
107.7,1.212588
107.75,1.185978
107.8,0.7341525
107.85,1.260081
107.9,1.684588
107.95,1.626781
108,1.489743
108.05,2.123487
108.1,3.070539
108.15,3.465828
108.2,3.020899
108.25,2.473656
108.3,1.426417
108.35,0.7008386
108.4,1.377038
108.45,1.888641
108.5,1.854936
108.55,1.27592
108.6,0.8754423
108.65,1.608179
108.7,5.327232
108.75,9.495784
108.8,16.76454
108.85,23.91759
108.9,33.04771
108.95,44.13093
109,57.04237
109.05,77.16169
109.1,99.4004
109.15,119.4244
109.2,143.051
109.25,172.1463
109.3,202.5186
109.35,234.1112
109.4,264.2294
109.45,292.7904
109.5,311.759
109.55,326.0717
109.6,334.5637
109.65,345.3857
109.7,355.5772
109.75,364.22
109.8,367.5029
109.85,363.7634
109.9,349.6999
109.95,328.0575
110,303.4016
110.05,281.6712
110.1,260.3102
110.15,238.9638
110.2,216.9695
110.25,193.4037
110.3,171.1649
110.35,151.8621
110.4,137.553
110.45,124.9725
110.5,112.3784
110.55,101.5008
110.6,90.18011
110.65,77.27379
110.7,65.39351
110.75,55.11587
110.8,46.04333
110.85,38.27776
110.9,33.1729
110.95,31.75366
111,30.49089
111.05,28.39909
111.1,25.97628
111.15,22.57947
111.2,18.6708
111.25,15.70857
111.3,14.45242
111.35,13.7019
111.4,13.92799
111.45,14.04604
111.5,13.39092
111.55,11.87032
111.6,10.12596
111.65,7.780657
111.7,5.814433
111.75,3.788941
111.8,3.223823
111.85,4.055789
111.9,6.447931
111.95,9.378509
112,12.0985
112.05,14.51244
112.1,16.93602
112.15,19.4504
112.2,24.2761
112.25,31.02567
112.3,37.90264
112.35,46.35819
112.4,54.52406
112.45,64.95735
112.5,74.83865
112.55,82.66676
112.6,88.47793
112.65,92.6491
112.7,96.72807
112.75,101.56
112.8,106.8085
112.85,113.9106
112.9,119.7022
112.95,122.4987
113,123.5761
113.05,121.9895
113.1,122.1765
113.15,120.4368
113.2,112.7006
113.25,101.4129
113.3,89.67392
113.35,77.45885
113.4,66.05235
113.45,60.23252
113.5,58.43819
113.55,54.86546
113.6,50.9213
113.65,49.25164
113.7,45.43863
113.75,39.52161
113.8,34.07493
113.85,28.89583
113.9,24.00748
113.95,20.04306
114,17.45631
114.05,15.8227
114.1,14.58176
114.15,14.07542
114.2,13.22832
114.25,11.11342
114.3,9.047771
114.35,6.406426
114.4,3.71127
114.45,2.906095
114.5,2.211079
114.55,1.852594
114.6,1.646667
114.65,1.63686
114.7,1.895603
114.75,2.278404
114.8,2.781417
114.85,3.49951
114.9,3.837019
114.95,4.108255
115,4.162134
115.05,3.783825
115.1,3.04989
115.15,2.246066
115.2,1.642101
115.25,1.31428
115.3,1.668381
115.35,1.943051
115.4,1.565089
115.45,0.5491366
115.5,-1.061329
115.55,-2.174243
115.6,-2.177041
115.65,-1.781994
115.7,-1.12804
115.75,-0.2031085
115.8,-7.197379E-02
115.85,-0.0817779
115.9,-0.3296755
115.95,-1.025446
116,-1.767607
116.05,-2.968286
116.1,-3.744212
116.15,-3.277004
116.2,-2.884853
116.25,-2.644741
116.3,-3.165703
116.35,-4.206896
116.4,-5.133036
116.45,-5.851624
116.5,-6.310444
116.55,-5.977191
116.6,-5.817488
116.65,-5.907173
116.7,-6.042753
116.75,-6.340508
116.8,-6.979499
116.85,-7.513314
116.9,-8.001184
116.95,-7.596413
117,-7.233799
117.05,-6.74738
117.1,-6.350927
117.15,-6.265611
117.2,-6.502645
117.25,-6.905935
117.3,-7.182502
117.35,-7.132352
117.4,-6.736852
117.45,-6.696537
117.5,-6.62006
117.55,-6.742847
117.6,-7.152612
117.65,-7.521174
117.7,-7.853149
117.75,-8.007723
117.8,-7.758173
117.85,-7.789107
117.9,-7.658271
117.95,-7.482708
118,-7.192882
118.05,-6.862058
118.1,-6.862148
118.15,-6.877219
118.2,-7.023488
118.25,-7.471104
118.3,-7.759005
118.35,-7.618263
118.4,-7.518704
118.45,-7.561166
118.5,-7.63323
118.55,-7.603061
118.6,-7.544295
118.65,-7.240032
118.7,-6.82204
118.75,-6.669609
118.8,-6.748044
118.85,-7.050631
118.9,-7.394814
118.95,-7.632433
119,-7.713681
119.05,-7.729251
119.1,-7.866047
119.15,-8.038723
119.2,-8.182704
119.25,-8.343748
119.3,-8.400712
119.35,-8.402195
119.4,-8.472036
119.45,-8.560945
119.5,-8.609583
119.55,-8.517414
119.6,-8.452291
119.65,-8.323936
119.7,-8.01023
119.75,-7.82827
119.8,-7.898086
119.85,-8.059595
119.9,-8.240962
119.95,-8.429604
120,-8.625107
120.05,-8.68783
120.1,-8.656992
120.15,-8.697752
120.2,-8.692295
120.25,-8.599283
120.3,-8.525712
120.35,-8.423386
120.4,-8.217791
120.45,-7.982875
120.5,-7.841409
120.55,-7.8327
120.6,-7.830698
120.65,-8.031506
120.7,-8.365828
120.75,-8.592259
120.8,-8.637537
120.85,-8.609707
120.9,-8.556212
120.95,-8.528278
121,-8.417573
121.05,-8.194073
121.1,-8.043869
121.15,-8.055687
121.2,-8.214627
121.25,-8.483825
121.3,-8.723773
121.35,-8.813014
121.4,-8.800387
121.45,-8.567703
121.5,-8.451752
121.55,-8.515876
121.6,-8.635883
121.65,-8.61695
121.7,-8.564674
121.75,-8.553054
121.8,-8.599678
121.85,-8.614724
121.9,-8.732899
121.95,-9.006089
122,-9.066818
122.05,-8.985895
122.1,-8.942881
122.15,-8.926122
122.2,-8.864802
122.25,-8.806854
122.3,-8.755339
122.35,-8.725877
122.4,-8.758692
122.45,-8.516499
122.5,-8.457318
122.55,-8.310273
122.6,-8.056678
122.65,-7.98829
122.7,-8.075663
122.75,-8.28557
122.8,-8.463865
122.85,-8.657346
122.9,-8.74805
122.95,-8.644812
123,-8.2992
123.05,-8.074121
123.1,-8.093554
123.15,-8.23161
123.2,-8.471705
123.25,-8.784173
123.3,-8.721956
123.35,-8.498021
123.4,-8.316935
123.45,-8.38834
123.5,-8.57428
123.55,-8.778575
123.6,-8.823945
123.65,-8.789604
123.7,-8.66227
123.75,-8.669989
123.8,-8.768104
123.85,-8.883304
123.9,-8.960304
123.95,-8.988069
124,-8.944344
124.05,-8.907759
124.1,-8.800642
124.15,-8.483785
124.2,-8.134948
124.25,-8.06191
124.3,-8.237564
124.35,-8.643834
124.4,-8.927193
124.45,-8.906162
124.5,-8.72926
124.55,-8.478866
124.6,-8.413942
124.65,-8.606922
124.7,-8.854988
124.75,-8.990938
124.8,-8.919756
124.85,-8.802788
124.9,-8.69058
124.95,-8.539804
125,-8.474277
125.05,-8.491027
125.1,-8.577355
125.15,-8.654322
125.2,-8.715374
125.25,-8.739218
125.3,-8.723973
125.35,-8.715244
125.4,-8.646379
125.45,-8.560494
125.5,-8.549649
125.55,-8.51623
125.6,-8.460461
125.65,-8.460987
125.7,-8.519955
125.75,-8.576952
125.8,-8.636948
125.85,-8.742886
125.9,-8.799726
125.95,-8.766956
126,-8.687114
126.05,-8.719596
126.1,-8.806769
126.15,-8.871419
126.2,-8.865932
126.25,-8.809824
126.3,-8.736543
126.35,-8.656557
126.4,-8.740799
126.45,-8.878931
126.5,-8.934688
126.55,-8.89947
126.6,-8.867748
126.65,-8.900034
126.7,-8.973723
126.75,-9.007911
126.8,-9.080905
126.85,-9.129115
126.9,-9.058788
126.95,-8.957796
127,-8.910736
127.05,-8.909891
127.1,-8.892009
127.15,-8.835247
127.2,-8.855211
127.25,-8.901155
127.3,-8.851488
127.35,-8.846941
127.4,-8.864747
127.45,-8.89763
127.5,-8.888885
127.55,-8.900616
127.6,-8.911935
127.65,-8.901395
127.7,-8.823032
127.75,-8.763646
127.8,-8.715162
127.85,-8.656266
127.9,-8.674732
127.95,-8.704956
128,-8.723281
128.05,-8.772048
128.1,-8.799122
128.15,-8.803647
128.2,-8.804236
128.25,-8.790559
128.3,-8.829534
128.35,-8.782925
128.4,-8.751428
128.45,-8.784459
128.5,-8.778014
128.55,-8.735476
128.6,-8.727798
128.65,-8.75768
128.7,-8.772241
128.75,-8.693998
128.8,-8.666582
128.85,-8.72667
128.9,-8.783517
128.95,-8.825794
129,-8.889132
129.05,-8.926147
129.1,-8.869953
129.15,-8.790938
129.2,-8.789148
129.25,-8.860351
129.3,-8.898367
129.35,-8.875005
129.4,-8.86264
129.45,-8.868215
129.5,-8.848913
129.55,-8.843276
129.6,-8.896176
129.65,-8.962011
129.7,-8.930413
129.75,-8.825264
129.8,-8.772431
129.85,-8.670755
129.9,-8.573098
129.95,-8.574373
130,-8.68806
130.05,-8.875939
130.1,-9.062722
130.15,-9.10056
130.2,-9.090879
130.25,-8.983305
130.3,-8.895964
130.35,-8.727719
130.4,-8.607195
130.45,-8.540069
130.5,-8.528961
130.55,-8.55343
130.6,-8.636162
130.65,-8.64108
130.7,-8.367435
130.75,-8.140018
130.8,-8.131334
130.85,-8.218044
130.9,-8.403314
130.95,-8.63942
131,-8.687478
131.05,-8.636883
131.1,-8.525244
131.15,-8.634354
131.2,-8.746305
131.25,-8.838697
131.3,-8.939094
131.35,-8.916226
131.4,-8.78246
131.45,-8.7283
131.5,-8.743517
131.55,-8.895359
131.6,-8.952838
131.65,-9.015299
131.7,-9.008912
131.75,-8.796155
131.8,-8.611616
131.85,-8.475586
131.9,-8.417255
131.95,-8.56147
132,-8.661455
132.05,-8.855276
132.1,-8.981489
132.15,-9.038445
132.2,-9.042678
132.25,-8.984009
132.3,-8.950929
132.35,-9.009103
132.4,-8.989052
132.45,-9.020449
132.5,-9.002398
132.55,-8.97507
132.6,-8.901873
132.65,-8.881823
132.7,-8.903272
132.75,-8.967519
132.8,-8.907592
132.85,-8.897175
132.9,-8.872732
132.95,-8.948973
133,-9.04421
133.05,-9.070518
133.1,-9.040475
133.15,-8.930799
133.2,-8.766177
133.25,-8.665247
133.3,-8.646297
133.35,-8.745379
133.4,-8.849209
133.45,-8.899719
133.5,-8.935111
133.55,-8.881439
133.6,-8.801782
133.65,-8.732868
133.7,-8.734155
133.75,-8.735412
133.8,-8.699666
133.85,-8.694007
133.9,-8.734776
133.95,-8.826258
134,-8.913498
134.05,-8.943801
134.1,-8.960847
134.15,-8.936682
134.2,-8.888258
134.25,-8.92059
134.3,-8.984916
134.35,-9.012116
134.4,-8.977654
134.45,-8.924827
134.5,-8.895935
134.55,-8.887988
134.6,-8.874326
134.65,-8.813785
134.7,-8.795479
134.75,-8.800964
134.8,-8.866006
134.85,-8.932907
134.9,-8.995321
134.95,-9.086248
135,-9.138299
135.05,-9.084727
135.1,-9.079374
135.15,-8.886519
135.2,-8.642815
135.25,-8.478771
135.3,-8.525397
135.35,-8.673622
135.4,-8.855425
135.45,-9.035515
135.5,-9.138669
135.55,-9.138483
135.6,-9.066732
135.65,-9.005448
135.7,-8.960517
135.75,-8.8901
135.8,-8.825336
135.85,-8.787404
135.9,-8.781716
135.95,-8.85869
136,-8.852196
136.05,-8.921115
136.1,-8.823286
136.15,-8.680478
136.2,-8.627522
136.25,-8.671896
136.3,-8.808621
136.35,-8.941509
136.4,-8.986601
136.45,-9.053785
136.5,-8.998357
136.55,-9.010243
136.6,-8.996235
136.65,-8.967077
136.7,-9.01237
136.75,-9.035551
136.8,-9.057536
136.85,-9.068931
136.9,-8.952138
136.95,-8.825251
137,-8.824157
137.05,-8.898497
137.1,-8.984752
137.15,-9.018133
137.2,-9.060625
137.25,-9.12311
137.3,-9.168221
137.35,-9.211001
137.4,-9.226738
137.45,-9.209401
137.5,-9.169563
137.55,-9.198134
137.6,-9.290991
137.65,-9.355774
137.7,-9.34387
137.75,-9.367666
137.8,-9.280495
137.85,-9.096169
137.9,-8.942422
137.95,-8.945732
138,-8.989166
 
Alignment,On
