Data File Name,Nexterajlc_High Sensitivity DNA Assay_DE24802700_2017-11-14_10-57-20.xad
Data File Path,C:\Users\jlchiniquy\Desktop\20171205_Nextera_library_size_to_loading_concentration_tool\JLChiniquy
Date Created,"Tuesday, November 14, 2017 6:57:20 PM"
Date Last Modified,"Tuesday, December 05, 2017 9:51:38 PM"
Version Created,B.02.07.SI532
Version Last Modified,B.02.08.SI648
 
Assay Name,High Sensitivity DNA
Assay Path,C:\Program Files\Agilent\2100 bioanalyzer\2100 expert\assays\dsDNA
Assay Title,High Sensitivity DNA Assay
Assay Version,1.0
 
Number of Samples Run,11
 
Sample Name,Ladder
Number of Events,2121
 
Time,Value
32,-0.1017761
32.05,-0.1017761
32.1,-0.1017761
32.15,-0.1017761
32.2,-0.1017761
32.25,-0.1017761
32.3,-0.1017761
32.35,-0.1017761
32.4,-0.1017761
32.45,-0.1017761
32.5,-0.1017761
32.55,-0.1017761
32.6,-0.1017761
32.65,-0.1017761
32.7,-0.1017761
32.75,-0.1017761
32.8,-0.1017761
32.85,-0.1017761
32.9,-0.1017761
32.95,-0.1017761
33,-0.1017761
33.05,-0.1017761
33.1,-0.1017761
33.15,-0.1017761
33.2,-0.1017761
33.25,-0.1017761
33.3,-0.1017761
33.35,-0.1017761
33.4,-0.1099709
33.45,-9.048858E-02
33.5,-4.244795E-02
33.55,-1.129359E-02
33.6,8.484447E-03
33.65,4.796878E-02
33.7,7.694522E-02
33.75,6.728598E-02
33.8,3.835261E-02
33.85,5.416344E-03
33.9,1.518871E-02
33.95,1.859102E-02
34,-6.515503E-03
34.05,4.196807E-03
34.1,-0.027758
34.15,0.0210161
34.2,5.243916E-02
34.25,4.636737E-02
34.3,-2.664652E-03
34.35,-3.102412E-02
34.4,-3.654181E-02
34.45,-3.135557E-02
34.5,2.206012E-02
34.55,0.0937284
34.6,0.1150754
34.65,9.093242E-02
34.7,5.358192E-02
34.75,3.819875E-02
34.8,7.196403E-02
34.85,7.892581E-02
34.9,3.769416E-02
34.95,4.796565E-02
35,-4.986572E-02
35.05,6.870383E-03
35.1,0.1047356
35.15,0.1684336
35.2,0.2192917
35.25,0.1566564
35.3,6.485068E-02
35.35,-2.892038E-02
35.4,-0.1503776
35.45,-0.1416813
35.5,-9.362075E-02
35.55,-0.1045642
35.6,-0.1186465
35.65,-0.1268232
35.7,-9.921907E-02
35.75,-5.228016E-02
35.8,-4.312359E-02
35.85,-2.646418E-02
35.9,-7.051688E-02
35.95,-0.1883297
36,-9.104919E-02
36.05,-2.222369E-02
36.1,3.281431E-02
36.15,4.743923E-02
36.2,2.561793E-03
36.25,-3.379118E-02
36.3,-5.793168E-02
36.35,-2.972203E-02
36.4,5.975719E-02
36.45,0.1055175
36.5,6.702152E-02
36.55,2.658751E-02
36.6,1.292383E-02
36.65,6.502102E-03
36.7,0.0131526
36.75,-0.0162943
36.8,-4.322249E-02
36.85,-0.0461306
36.9,1.059333E-02
36.95,0.0413107
37,9.213257E-02
37.05,0.1418673
37.1,0.1716073
37.15,0.2053748
37.2,0.2270239
37.25,0.2611091
37.3,0.2654251
37.35,0.2110835
37.4,0.1533327
37.45,0.1239845
37.5,9.075743E-02
37.55,6.911719E-02
37.6,7.089223E-02
37.65,6.571561E-02
37.7,7.427893E-02
37.75,0.1033524
37.8,0.1253349
37.85,0.1509923
37.9,0.1696389
37.95,0.1391424
38,0.1193848
38.05,8.091322E-02
38.1,7.328505E-02
38.15,7.922547E-02
38.2,5.010876E-02
38.25,4.921357E-02
38.3,0.0466949
38.35,1.936126E-02
38.4,5.334434E-03
38.45,9.035832E-03
38.5,5.089849E-02
38.55,0.1187196
38.6,0.1427913
38.65,0.1251052
38.7,0.1103088
38.75,6.598505E-02
38.8,1.735767E-02
38.85,-4.160444E-02
38.9,-8.122394E-04
38.95,0.1073688
39,0.1338959
39.05,7.314447E-02
39.1,6.286028E-02
39.15,9.303352E-02
39.2,9.465013E-02
39.25,0.1631563
39.3,0.2357854
39.35,0.2313798
39.4,0.1634866
39.45,0.0945086
39.5,6.182057E-02
39.55,0.1010455
39.6,0.1646884
39.65,0.1987991
39.7,0.2395206
39.75,0.2314436
39.8,0.1965454
39.85,0.2023461
39.9,0.2382668
39.95,0.2703199
40,0.2531281
40.05,0.2074521
40.1,0.188953
40.15,0.1700302
40.2,0.1631499
40.25,0.2124837
40.3,0.2373978
40.35,0.2181978
40.4,0.1688868
40.45,0.166692
40.5,0.1699284
40.55,0.1373594
40.6,0.1243899
40.65,0.1301499
40.7,0.134034
40.75,0.1740378
40.8,0.1828122
40.85,0.1935802
40.9,0.1942441
40.95,0.1150187
41,7.063293E-02
41.05,0.1022335
41.1,0.1608873
41.15,0.1735118
41.2,0.1681272
41.25,0.272948
41.3,0.3317324
41.35,0.3790129
41.4,0.4326326
41.45,0.4851008
41.5,0.500625
41.55,0.4327771
41.6,0.3505245
41.65,0.3484237
41.7,0.3709438
41.75,0.3909245
41.8,0.4732051
41.85,0.4882319
41.9,0.4950032
41.95,0.4471141
42,0.4019165
42.05,0.4090919
42.1,0.379972
42.15,0.3010882
42.2,0.2490281
42.25,0.182654
42.3,0.2109578
42.35,0.3134075
42.4,0.5830967
42.45,1.089614
42.5,2.109512
42.55,4.432753
42.6,9.16022
42.65,17.25064
42.7,29.27339
42.75,45.20189
42.8,63.98384
42.85,83.41312
42.9,100.2591
42.95,111.0633
43,112.8961
43.05,104.6717
43.1,88.63963
43.15,68.63472
43.2,48.63818
43.25,31.65463
43.3,19.04656
43.35,10.80912
43.4,5.9948
43.45,3.497996
43.5,2.292534
43.55,1.722368
43.6,1.454453
43.65,1.286565
43.7,1.165129
43.75,1.066795
43.8,1.063239
43.85,1.018456
43.9,0.8981177
43.95,0.7975101
44,0.7614594
44.05,0.7757376
44.1,0.7810622
44.15,0.6845765
44.2,0.599787
44.25,0.5496361
44.3,0.539296
44.35,0.601997
44.4,0.6679292
44.45,0.6914057
44.5,0.6657924
44.55,0.6062886
44.6,0.5588346
44.65,0.56145
44.7,0.6632199
44.75,1.038613
44.8,2.109597
44.85,4.755599
44.9,10.11703
44.95,19.71375
45,34.74237
45.05,56.44319
45.1,83.31853
45.15,111.5259
45.2,135.8978
45.25,151.1708
45.3,154.0997
45.35,143.9575
45.4,123.0808
45.45,96.23607
45.5,68.90225
45.55,45.305
45.6,27.67355
45.65,16.36648
45.7,10.17186
45.75,7.163069
45.8,5.600317
45.85,4.632855
45.9,3.898343
45.95,3.508919
46,3.16153
46.05,2.994481
46.1,2.828985
46.15,2.662485
46.2,2.589906
46.25,2.572204
46.3,2.593456
46.35,2.589802
46.4,2.443972
46.45,2.191093
46.5,1.841041
46.55,1.462035
46.6,1.168247
46.65,0.9428436
46.7,0.7783879
46.75,0.7162642
46.8,0.6591674
46.85,0.6643293
46.9,0.6767729
46.95,0.6072266
47,0.6110535
47.05,0.6351743
47.1,0.6506848
47.15,0.7043833
47.2,0.6706436
47.25,0.646156
47.3,0.5952571
47.35,0.4760191
47.4,0.4339275
47.45,0.4579436
47.5,0.4774785
47.55,0.5017583
47.6,0.5334154
47.65,0.5234784
47.7,0.4376398
47.75,0.3003608
47.8,0.1777188
47.85,0.1841908
47.9,0.1823287
47.95,0.249552
48,0.3682861
48.05,0.4641896
48.1,0.4609163
48.15,0.437695
48.2,0.4500708
48.25,0.4323229
48.3,0.415895
48.35,0.4282676
48.4,0.4093906
48.45,0.3807128
48.5,0.3923507
48.55,0.4214392
48.6,0.4416063
48.65,0.4616448
48.7,0.4844327
48.75,0.5089837
48.8,0.4936237
48.85,0.4407856
48.9,0.4266969
48.95,0.3654445
49,0.3285675
49.05,0.3342643
49.1,0.3502743
49.15,0.3643683
49.2,0.3406546
49.25,0.3047936
49.3,0.2912384
49.35,0.2531779
49.4,0.2373234
49.45,0.2303787
49.5,0.2484378
49.55,0.2770942
49.6,0.2718122
49.65,0.2494239
49.7,0.2365722
49.75,0.2439501
49.8,0.2422904
49.85,0.2702947
49.9,0.2872913
49.95,0.236775
50,0.2162781
50.05,0.179749
50.1,0.1411187
50.15,0.131812
50.2,0.2171845
50.25,0.6545282
50.3,2.42265
50.35,6.961402
50.4,16.62478
50.45,33.30423
50.5,58.31798
50.55,90.85743
50.6,127.4638
50.65,162.2633
50.7,187.5854
50.75,197.2547
50.8,188.5803
50.85,163.7022
50.9,128.6946
50.95,91.72167
51,59.66165
51.05,37.11083
51.1,22.86752
51.15,15.05869
51.2,11.08373
51.25,8.947697
51.3,7.561018
51.35,6.475682
51.4,5.717337
51.45,5.145756
51.5,4.700264
51.55,4.366422
51.6,4.078934
51.65,3.828451
51.7,3.613504
51.75,3.430821
51.8,3.195086
51.85,2.919408
51.9,2.575509
51.95,2.223584
52,1.856277
52.05,1.542156
52.1,1.178185
52.15,0.8522608
52.2,0.6003833
52.25,0.4748708
52.3,0.3828377
52.35,0.2683591
52.4,0.195258
52.45,0.1141647
52.5,1.403046E-02
52.55,-3.853793E-02
52.6,-3.758021E-02
52.65,-2.345576E-02
52.7,-2.485478E-02
52.75,-7.345796E-02
52.8,-0.1427734
52.85,-0.1457319
52.9,-0.1445329
52.95,-8.512119E-02
53,-8.816528E-02
53.05,-0.0686251
53.1,-9.334502E-02
53.15,-0.1570517
53.2,-0.1884529
53.25,-0.2074893
53.3,-0.2020293
53.35,-0.2105621
53.4,-0.1877535
53.45,-0.1633308
53.5,-0.1650234
53.55,-0.1480698
53.6,-0.1191836
53.65,-0.125055
53.7,-0.1413406
53.75,-0.1645455
53.8,-0.2370436
53.85,-0.2914507
53.9,-0.3378589
53.95,-0.3535456
54,-0.3700562
54.05,-0.4788318
54.1,-0.4573813
54.15,-0.4679541
54.2,-0.4660063
54.25,-0.4316284
54.3,-0.4280625
54.35,-0.4844609
54.4,-0.510922
54.45,-0.5468976
54.5,-0.5498067
54.55,-0.5293106
54.6,-0.5209711
54.65,-0.4880943
54.7,-0.4749817
54.75,-0.4531762
54.8,-0.3767349
54.85,-0.3209895
54.9,-0.1641449
54.95,0.5843734
55,2.773178
55.05,9.121592
55.1,21.99126
55.15,42.99342
55.2,73.51721
55.25,112.2809
55.3,154.1508
55.35,191.2875
55.4,215.9808
55.45,222.8114
55.5,209.9832
55.55,180.5371
55.6,141.729
55.65,102.0561
55.7,68.04036
55.75,42.75669
55.8,26.52512
55.85,17.59539
55.9,12.7073
55.95,9.83438
56,7.941345
56.05,6.693484
56.1,5.832593
56.15,4.977682
56.2,4.36696
56.25,3.811311
56.3,3.249936
56.35,2.921913
56.4,2.75344
56.45,2.633428
56.5,2.426029
56.55,2.182117
56.6,2.037466
56.65,1.883711
56.7,1.654969
56.75,1.501738
56.8,1.353027
56.85,1.151724
56.9,0.9696478
56.95,0.8078007
57,0.8451996
57.05,0.7389752
57.1,0.5806632
57.15,0.3215165
57.2,0.1384074
57.25,-4.984272E-02
57.3,-0.1669868
57.35,-0.2381292
57.4,-0.2953164
57.45,-0.424152
57.5,-0.5216438
57.55,-0.5772421
57.6,-0.6194232
57.65,-0.6325458
57.7,-0.715867
57.75,-0.7994288
57.8,-0.9272675
57.85,-1.104967
57.9,-1.158064
57.95,-1.089708
58,-1.030319
58.05,-0.9238919
58.1,-0.862915
58.15,-0.8811634
58.2,-0.9406819
58.25,-1.060744
58.3,-1.124947
58.35,-1.195297
58.4,-1.228894
58.45,-1.231174
58.5,-1.222489
58.55,-1.220435
58.6,-1.204565
58.65,-1.184007
58.7,-1.212547
58.75,-1.219947
58.8,-1.262978
58.85,-1.303736
58.9,-1.39239
58.95,-1.454634
59,-1.500687
59.05,-1.50663
59.1,-1.55795
59.15,-1.536013
59.2,-1.473145
59.25,-1.416556
59.3,-1.366948
59.35,-1.384094
59.4,-1.419223
59.45,-1.443754
59.5,-1.404896
59.55,-0.9732326
59.6,0.7205828
59.65,5.332883
59.7,15.03878
59.75,31.97909
59.8,57.99424
59.85,92.76994
59.9,133.3958
59.95,173.584
60,206.8688
60.05,225.6953
60.1,225.9863
60.15,208.613
60.2,178.692
60.25,142.2455
60.3,106.0931
60.35,75.04478
60.4,51.612
60.45,35.68493
60.5,25.7338
60.55,19.93369
60.6,16.6024
60.65,14.46764
60.7,12.83782
60.75,11.48232
60.8,10.12055
60.85,8.797539
60.9,7.892855
60.95,7.102527
61,6.347534
61.05,5.797858
61.1,5.272379
61.15,4.848369
61.2,4.388798
61.25,4.03235
61.3,3.807351
61.35,3.564791
61.4,3.289238
61.45,2.966692
61.5,2.616056
61.55,2.304494
61.6,1.98787
61.65,1.647757
61.7,1.346225
61.75,0.9907518
61.8,0.666684
61.85,0.3731538
61.9,0.1390692
61.95,-3.323162E-02
62,-0.1897125
62.05,-0.4325442
62.1,-0.674282
62.15,-0.7615637
62.2,-0.7834629
62.25,-0.8329136
62.3,-0.8849007
62.35,-0.9964411
62.4,-1.205444
62.45,-1.405261
62.5,-1.506277
62.55,-1.582595
62.6,-1.690541
62.65,-1.748761
62.7,-1.725281
62.75,-1.70618
62.8,-1.74095
62.85,-1.802265
62.9,-1.858248
62.95,-1.940206
63,-1.999725
63.05,-1.977793
63.1,-1.946864
63.15,-1.951327
63.2,-2.022061
63.25,-2.11274
63.3,-2.151909
63.35,-2.108419
63.4,-2.092599
63.45,-2.153277
63.5,-2.204376
63.55,-2.238448
63.6,-2.272131
63.65,-2.272622
63.7,-2.259536
63.75,-2.239349
63.8,-2.260921
63.85,-2.306045
63.9,-2.423182
63.95,-2.46104
64,-2.513428
64.05,-2.462171
64.1,-2.434933
64.15,-2.443489
64.2,-2.448007
64.25,-2.373924
64.3,-2.38278
64.35,-2.348632
64.4,-2.290111
64.45,-2.292588
64.5,-2.343575
64.55,-2.379391
64.6,-2.365767
64.65,-2.330982
64.7,-2.343232
64.75,-2.414062
64.8,-2.461221
64.85,-2.465842
64.9,-2.484892
64.95,-2.368787
65,-2.296936
65.05,-2.316824
65.1,-2.394306
65.15,-2.533328
65.2,-2.609731
65.25,-2.602216
65.3,-2.532023
65.35,-2.473679
65.4,-2.475736
65.45,-2.522589
65.5,-2.571503
65.55,-2.622181
65.6,-2.67896
65.65,-2.699873
65.7,-2.667101
65.75,-2.639993
65.8,-2.657757
65.85,-2.615107
65.9,-2.481276
65.95,-2.3942
66,-2.459412
66.05,-2.515902
66.1,-2.565895
66.15,-2.660754
66.2,-2.77011
66.25,-2.814879
66.3,-2.83115
66.35,-2.833511
66.4,-2.869011
66.45,-2.881134
66.5,-2.88694
66.55,-2.890301
66.6,-2.87356
66.65,-2.884539
66.7,-2.947938
66.75,-3.034062
66.8,-3.030693
66.85,-3.052853
66.9,-3.013724
66.95,-3.008766
67,-3.017929
67.05,-3.037846
67.1,-3.073528
67.15,-3.038183
67.2,-2.953414
67.25,-2.926678
67.3,-2.911373
67.35,-2.933166
67.4,-2.982402
67.45,-3.002035
67.5,-2.963318
67.55,-2.945031
67.6,-2.955793
67.65,-2.946221
67.7,-2.965411
67.75,-3.006527
67.8,-3.081952
67.85,-3.07743
67.9,-3.052136
67.95,-3.018876
68,-2.990112
68.05,-2.906921
68.1,-2.955508
68.15,-3.001562
68.2,-3.057549
68.25,-3.087115
68.3,-3.085215
68.35,-3.067991
68.4,-3.075803
68.45,-3.05776
68.5,-2.87529
68.55,-2.08435
68.6,0.1461681
68.65,5.131737
68.7,14.81017
68.75,31.24269
68.8,55.62273
68.85,87.51587
68.9,125.5393
68.95,165.6025
69,202.5634
69.05,230.3872
69.1,245.8539
69.15,247.1248
69.2,234.8517
69.25,210.7926
69.3,179.1367
69.35,144.4264
69.4,111.3136
69.45,82.94081
69.5,60.8811
69.55,45.19922
69.6,34.71864
69.65,27.67213
69.7,22.52105
69.75,18.79101
69.8,16.11508
69.85,14.27559
69.9,12.63252
69.95,11.49228
70,10.46555
70.05,9.41101
70.1,8.513397
70.15,8.021061
70.2,7.654953
70.25,7.20822
70.3,6.721935
70.35,6.315932
70.4,5.909783
70.45,5.666737
70.5,5.648186
70.55,5.491867
70.6,4.98352
70.65,4.337917
70.7,3.767732
70.75,3.318968
70.8,2.922278
70.85,2.613599
70.9,2.260854
70.95,1.715334
71,1.204285
71.05,0.8044777
71.1,0.597206
71.15,0.3360505
71.2,6.413407E-02
71.25,-0.2616409
71.3,-0.5778035
71.35,-0.8449513
71.4,-1.03828
71.45,-1.22525
71.5,-1.41996
71.55,-1.616071
71.6,-1.789585
71.65,-1.908752
71.7,-1.998236
71.75,-2.060417
71.8,-2.144507
71.85,-2.168247
71.9,-2.276597
71.95,-2.440667
72,-2.453323
72.05,-2.46679
72.1,-2.534609
72.15,-2.568877
72.2,-2.610947
72.25,-2.684724
72.3,-2.835951
72.35,-2.956649
72.4,-3.022597
72.45,-3.062566
72.5,-3.089607
72.55,-3.076666
72.6,-3.058704
72.65,-3.053583
72.7,-3.039409
72.75,-3.115708
72.8,-3.177109
72.85,-3.28666
72.9,-3.359855
72.95,-3.424623
73,-3.393845
73.05,-3.387539
73.1,-3.304016
73.15,-3.338671
73.2,-3.407073
73.25,-3.540808
73.3,-3.619861
73.35,-3.627284
73.4,-3.64452
73.45,-3.678984
73.5,-3.649712
73.55,-3.608023
73.6,-3.605315
73.65,-3.605431
73.7,-3.624988
73.75,-3.638927
73.8,-3.703116
73.85,-3.772278
73.9,-3.725867
73.95,-3.71425
74,-3.735214
74.05,-3.766728
74.1,-3.834838
74.15,-3.764705
74.2,-3.687746
74.25,-3.525283
74.3,-3.416287
74.35,-3.463982
74.4,-3.531877
74.45,-3.552302
74.5,-3.511885
74.55,-3.465125
74.6,-3.463884
74.65,-3.484844
74.7,-3.557677
74.75,-3.689222
74.8,-3.747796
74.85,-3.738549
74.9,-3.732038
74.95,-3.781939
75,-3.943039
75.05,-3.957027
75.1,-3.958478
75.15,-3.859689
75.2,-3.801849
75.25,-3.744006
75.3,-3.746248
75.35,-3.794789
75.4,-3.885648
75.45,-3.921233
75.5,-3.927801
75.55,-3.955859
75.6,-3.978276
75.65,-3.966277
75.7,-3.930241
75.75,-3.937566
75.8,-3.924447
75.85,-3.905627
75.9,-3.909561
75.95,-4.011612
76,-4.038361
76.05,-4.013573
76.1,-4.039046
76.15,-4.065122
76.2,-4.089925
76.25,-4.053202
76.3,-3.995317
76.35,-3.954802
76.4,-3.923513
76.45,-3.905663
76.5,-3.887224
76.55,-3.758998
76.6,-3.360585
76.65,-2.332838
76.7,0.223932
76.75,5.553719
76.8,14.8251
76.85,29.45049
76.9,49.8169
76.95,76.22265
77,108.2205
77.05,144.8184
77.1,180.5739
77.15,212.7257
77.2,236.8873
77.25,251.366
77.3,254.3685
77.35,246.4168
77.4,228.3486
77.45,202.3721
77.5,171.726
77.55,140.5082
77.6,111.9336
77.65,87.78876
77.7,69.14592
77.75,54.96873
77.8,44.18454
77.85,35.73873
77.9,29.68287
77.95,25.42198
78,21.81874
78.05,18.80711
78.1,16.63007
78.15,14.88675
78.2,13.22102
78.25,11.97261
78.3,11.10053
78.35,10.38291
78.4,9.575233
78.45,8.989361
78.5,8.646882
78.55,8.235018
78.6,7.646086
78.65,6.994984
78.7,6.489229
78.75,6.12935
78.8,5.639517
78.85,5.262619
78.9,4.990241
78.95,4.38657
79,3.531357
79.05,2.829198
79.1,2.264127
79.15,1.911926
79.2,1.405004
79.25,1.054325
79.3,0.7403629
79.35,0.3385458
79.4,-0.0811892
79.45,-0.4071266
79.5,-0.6265658
79.55,-0.8879142
79.6,-1.174567
79.65,-1.368211
79.7,-1.548833
79.75,-1.692995
79.8,-1.84452
79.85,-2.058208
79.9,-2.167491
79.95,-2.263913
80,-2.466782
80.05,-2.498382
80.1,-2.655442
80.15,-2.747484
80.2,-2.794956
80.25,-2.841177
80.3,-2.856004
80.35,-2.968898
80.4,-3.093503
80.45,-3.242083
80.5,-3.365534
80.55,-3.443411
80.6,-3.490937
80.65,-3.48329
80.7,-3.468769
80.75,-3.465835
80.8,-3.501143
80.85,-3.478578
80.9,-3.51265
80.95,-3.550629
81,-3.552094
81.05,-3.515999
81.1,-3.480798
81.15,-3.548092
81.2,-3.64094
81.25,-3.695151
81.3,-3.698538
81.35,-3.739951
81.4,-3.780824
81.45,-3.811602
81.5,-3.825074
81.55,-3.813237
81.6,-3.826533
81.65,-3.878861
81.7,-3.913502
81.75,-3.945681
81.8,-4.00355
81.85,-4.003397
81.9,-3.92217
81.95,-3.856184
82,-3.819809
82.05,-3.846191
82.1,-3.834768
82.15,-3.731311
82.2,-3.54227
82.25,-3.08936
82.3,-2.021404
82.35,9.507087E-02
82.4,4.114365
82.45,10.62322
82.5,20.74467
82.55,35.77557
82.6,56.1708
82.65,81.82486
82.7,111.8235
82.75,143.7661
82.8,175.3831
82.85,204.5586
82.9,227.9426
82.95,244.3666
83,251.0571
83.05,246.7575
83.1,233.5318
83.15,213.063
83.2,188.7354
83.25,163.4773
83.3,139.1414
83.35,116.6577
83.4,96.6935
83.45,80.10608
83.5,67.22295
83.55,57.68138
83.6,50.66849
83.65,45.3195
83.7,40.95783
83.75,36.91006
83.8,33.31562
83.85,30.75491
83.9,29.17021
83.95,27.9059
84,26.60237
84.05,25.03069
84.1,23.36328
84.15,21.57077
84.2,20.27523
84.25,19.04696
84.3,17.87061
84.35,16.38788
84.4,14.70759
84.45,13.316
84.5,12.28479
84.55,11.4798
84.6,10.84242
84.65,10.2095
84.7,9.410764
84.75,8.438086
84.8,7.435237
84.85,6.721733
84.9,6.108327
84.95,5.349636
85,4.812805
85.05,4.111487
85.1,3.288825
85.15,2.331606
85.2,1.568067
85.25,0.9533762
85.3,0.4421853
85.35,5.107401E-02
85.4,-0.1480919
85.45,-0.3929999
85.5,-0.6778767
85.55,-0.9094524
85.6,-1.06872
85.65,-1.182652
85.7,-1.344706
85.75,-1.418723
85.8,-1.501
85.85,-1.670159
85.9,-1.799228
85.95,-1.888478
86,-2.015793
86.05,-2.182798
86.1,-2.47706
86.15,-2.463279
86.2,-2.640483
86.25,-2.64493
86.3,-2.540336
86.35,-2.575211
86.4,-2.69146
86.45,-2.893382
86.5,-3.044224
86.55,-3.01872
86.6,-2.899942
86.65,-2.57365
86.7,-1.790028
86.75,-0.367969
86.8,2.499532
86.85,7.245749
86.9,14.95772
86.95,26.39836
87,42.52229
87.05,63.32393
87.1,88.91769
87.15,120.1702
87.2,153.3386
87.25,185.544
87.3,215.4312
87.35,239.3749
87.4,256.3239
87.45,266.3112
87.5,269.1348
87.55,264.3596
87.6,251.7777
87.65,232.3845
87.7,208.3532
87.75,181.814
87.8,155.0388
87.85,131.5679
87.9,111.3659
87.95,95.41753
88,83.00003
88.05,73.90381
88.1,65.85513
88.15,58.98855
88.2,52.74781
88.25,47.56797
88.3,43.20758
88.35,39.98635
88.4,37.17538
88.45,34.412
88.5,31.90376
88.55,29.70969
88.6,27.66465
88.65,25.60834
88.7,23.42252
88.75,21.18183
88.8,19.27391
88.85,17.28109
88.9,15.71994
88.95,14.37555
89,12.83051
89.05,10.71945
89.1,9.110027
89.15,8.026634
89.2,7.38016
89.25,6.526391
89.3,5.6948
89.35,4.650796
89.4,3.502319
89.45,2.386948
89.5,1.63306
89.55,1.16783
89.6,0.7545301
89.65,0.393137
89.7,0.1281198
89.75,0.183428
89.8,0.1881257
89.85,0.7638618
89.9,1.893786
89.95,4.487879
90,9.256607
90.05,16.74737
90.1,27.79133
90.15,42.96372
90.2,61.085
90.25,83.77601
90.3,108.873
90.35,136.2832
90.4,163.9989
90.45,190.6761
90.5,214.3918
90.55,233.6565
90.6,247.1081
90.65,253.5923
90.7,253.5465
90.75,246.6933
90.8,233.8524
90.85,216.0444
90.9,195.6981
90.95,174.6132
91,155.2797
91.05,136.9902
91.1,120.4441
91.15,105.5624
91.2,92.15964
91.25,80.94958
91.3,72.99728
91.35,67.06626
91.4,62.05999
91.45,57.48392
91.5,52.4691
91.55,47.41663
91.6,42.96275
91.65,38.9138
91.7,35.62248
91.75,32.6679
91.8,29.39254
91.85,26.8515
91.9,24.44953
91.95,21.84932
92,19.66019
92.05,17.48348
92.1,15.46919
92.15,13.72223
92.2,12.28783
92.25,11.23723
92.3,10.08592
92.35,8.962916
92.4,7.831913
92.45,6.715018
92.5,5.67064
92.55,4.735953
92.6,3.961164
92.65,3.356025
92.7,2.87896
92.75,2.538355
92.8,2.382424
92.85,1.959477
92.9,1.617097
92.95,1.39958
93,0.9920502
93.05,0.3673708
93.1,-9.200133E-02
93.15,-0.3496681
93.2,-0.5501894
93.25,-0.8352654
93.3,-0.9639741
93.35,-1.053436
93.4,-1.37081
93.45,-1.675259
93.5,-1.746776
93.55,-1.779754
93.6,-1.859468
93.65,-1.847574
93.7,-1.60038
93.75,-0.9233134
93.8,7.115815E-02
93.85,1.95184
93.9,4.931448
93.95,9.666891
94,17.37006
94.05,27.90795
94.1,42.60206
94.15,59.46609
94.2,79.04308
94.25,100.9075
94.3,125.8206
94.35,152.4457
94.4,179.5631
94.45,204.3209
94.5,225.4154
94.55,242.7257
94.6,255.8291
94.65,264.1282
94.7,266.97
94.75,264.693
94.8,256.6274
94.85,242.1771
94.9,225.2354
94.95,207.8857
95,193.1874
95.05,178.7354
95.1,163.5089
95.15,149.2726
95.2,135.3162
95.25,120.5412
95.3,107.1196
95.35,95.29269
95.4,85.79933
95.45,77.21604
95.5,68.87853
95.55,61.79148
95.6,55.46396
95.65,48.91418
95.7,42.79435
95.75,37.501
95.8,33.4169
95.85,29.63783
95.9,25.90016
95.95,22.97862
96,19.90388
96.05,16.71027
96.1,13.79245
96.15,11.63349
96.2,10.11501
96.25,8.754524
96.3,7.762428
96.35,7.117189
96.4,6.38078
96.45,5.635002
96.5,5.056312
96.55,4.550487
96.6,3.879475
96.65,3.058764
96.7,2.381308
96.75,1.804086
96.8,1.286407
96.85,0.7366803
96.9,8.320608E-02
96.95,-0.6189166
97,-1.240982
97.05,-1.378025
97.1,-1.336152
97.15,-1.24098
97.2,-1.308087
97.25,-1.644299
97.3,-1.982011
97.35,-2.121892
97.4,-2.004124
97.45,-1.86577
97.5,-1.821618
97.55,-1.874086
97.6,-2.051381
97.65,-2.338645
97.7,-2.602965
97.75,-2.644996
97.8,-2.573511
97.85,-2.360953
97.9,-2.089244
97.95,-1.875849
98,-1.805893
98.05,-2.041231
98.1,-2.323712
98.15,-2.442693
98.2,-2.581419
98.25,-2.62556
98.3,-2.775787
98.35,-3.075419
98.4,-3.392483
98.45,-3.654716
98.5,-3.733609
98.55,-3.614835
98.6,-3.50842
98.65,-3.42069
98.7,-3.20853
98.75,-3.018762
98.8,-2.790812
98.85,-2.725492
98.9,-2.788376
98.95,-2.869586
99,-3.009048
99.05,-3.412102
99.1,-3.338702
99.15,-3.267462
99.2,-3.274139
99.25,-3.344915
99.3,-3.258637
99.35,-3.17027
99.4,-3.179434
99.45,-3.356685
99.5,-3.539848
99.55,-3.636965
99.6,-3.660589
99.65,-3.562084
99.7,-3.420349
99.75,-3.314777
99.8,-3.254131
99.85,-3.321765
99.9,-3.426244
99.95,-3.485296
100,-3.406265
100.05,-3.46448
100.1,-3.366269
100.15,-3.361039
100.2,-3.226503
100.25,-3.118618
100.3,-3.039499
100.35,-2.8185
100.4,-1.905272
100.45,0.3551029
100.5,4.959658
100.55,11.69204
100.6,20.30915
100.65,31.61473
100.7,45.75298
100.75,62.85927
100.8,83.7552
100.85,109.7896
100.9,140.0083
100.95,172.7696
101,205.4878
101.05,236.6152
101.1,264.5202
101.15,289.8101
101.2,312.442
101.25,327.2225
101.3,333.0368
101.35,331.9661
101.4,323.9768
101.45,311.7932
101.5,296.1767
101.55,277.5245
101.6,257.0903
101.65,234.8089
101.7,212.2852
101.75,192.0561
101.8,173.5151
101.85,156.5064
101.9,138.3462
101.95,120.3911
102,104.6316
102.05,90.29492
102.1,78.18819
102.15,68.18055
102.2,60.43164
102.25,52.97985
102.3,45.1333
102.35,38.47967
102.4,32.32254
102.45,26.74865
102.5,22.19504
102.55,18.35088
102.6,15.23205
102.65,12.95506
102.7,11.3877
102.75,10.66603
102.8,9.827634
102.85,8.744121
102.9,7.106033
102.95,5.327673
103,3.724457
103.05,3.393045
103.1,3.123945
103.15,2.705828
103.2,1.900564
103.25,0.5197118
103.3,-0.6637132
103.35,-1.384398
103.4,-1.565765
103.45,-1.336108
103.5,-1.226424
103.55,-1.24346
103.6,-0.809045
103.65,3.152937E-02
103.7,1.237656
103.75,3.810412
103.8,7.829474
103.85,13.59698
103.9,20.96141
103.95,31.09834
104,44.99672
104.05,64.39098
104.1,85.01638
104.15,106.358
104.2,131.612
104.25,160.9924
104.3,193.7317
104.35,228.5743
104.4,261.0829
104.45,288.6484
104.5,309.713
104.55,324.0756
104.6,334.7728
104.65,343.5785
104.7,347.2163
104.75,342.3369
104.8,329.0103
104.85,310.4674
104.9,288.8129
104.95,266.4966
105,243.249
105.05,220.7437
105.1,196.29
105.15,171.0648
105.2,147.252
105.25,127.3618
105.3,109.8488
105.35,95.49934
105.4,82.93703
105.45,72.02612
105.5,62.05839
105.55,52.8489
105.6,44.70961
105.65,37.67189
105.7,32.43626
105.75,28.35248
105.8,25.33799
105.85,23.01384
105.9,20.0964
105.95,17.3524
106,14.8448
106.05,12.61708
106.1,11.18902
106.15,9.40917
106.2,8.111341
106.25,7.547069
106.3,6.396381
106.35,5.535314
106.4,5.245505
106.45,5.099154
106.5,4.888645
106.55,4.432527
106.6,4.096897
106.65,4.183589
106.7,3.859023
106.75,2.988478
106.8,2.402633
106.85,1.966832
106.9,1.596753
106.95,2.250567
107,2.509146
107.05,2.626166
107.1,2.394416
107.15,1.790853
107.2,1.395485
107.25,1.242798
107.3,1.124812
107.35,0.7328653
107.4,1.216371E-02
107.45,-0.4535682
107.5,-0.5191612
107.55,-0.5352548
107.6,-0.4882416
107.65,-0.3137774
107.7,-0.2146779
107.75,-1.847149E-02
107.8,0.3112825
107.85,0.7495314
107.9,1.28617
107.95,1.179815
108,1.11471
108.05,0.7234923
108.1,0.5608131
108.15,0.4758847
108.2,0.6853191
108.25,0.9545158
108.3,1.174806
108.35,0.5501342
108.4,-0.2404135
108.45,-0.894474
108.5,-1.361229
108.55,-1.729657
108.6,-1.6852
108.65,-0.8706266
108.7,3.108512E-02
108.75,0.6603518
108.8,1.27934
108.85,2.729647
108.9,5.01044
108.95,7.706336
109,11.16297
109.05,17.99727
109.1,25.46329
109.15,34.75034
109.2,47.13097
109.25,63.48814
109.3,82.84766
109.35,103.6716
109.4,127.9477
109.45,154.3935
109.5,182.3623
109.55,211.6346
109.6,239.1221
109.65,262.2555
109.7,280.3599
109.75,293.9676
109.8,306.3195
109.85,311.5605
109.9,314.3508
109.95,315.0252
110,309.3345
110.05,299.1701
110.1,286.2356
110.15,271.1795
110.2,258.0704
110.25,241.6206
110.3,223.0609
110.35,202.1571
110.4,181.3036
110.45,162.5283
110.5,146.6579
110.55,132.9152
110.6,120.9461
110.65,108.9062
110.7,93.6674
110.75,78.71134
110.8,66.82094
110.85,58.05634
110.9,50.74463
110.95,44.95098
111,38.69842
111.05,34.45001
111.1,29.04054
111.15,24.17478
111.2,19.65711
111.25,16.98875
111.3,14.35674
111.35,12.76882
111.4,11.36643
111.45,9.762533
111.5,8.070799
111.55,6.451439
111.6,5.30947
111.65,4.575569
111.7,3.735735
111.75,2.709773
111.8,1.691352
111.85,0.4749153
111.9,0.2200355
111.95,1.175593
112,2.554492
112.05,5.533902
112.1,10.2419
112.15,13.92401
112.2,19.71847
112.25,28.02194
112.3,36.56667
112.35,46.1007
112.4,54.89794
112.45,64.48359
112.5,76.21719
112.55,89.56675
112.6,105.0397
112.65,121.5297
112.7,135.3468
112.75,146.379
112.8,155.68
112.85,161.3908
112.9,167.4899
112.95,171.574
113,175.33
113.05,174.3161
113.1,171.6117
113.15,167.6943
113.2,162.199
113.25,153.2196
113.3,139.8916
113.35,126.1038
113.4,112.7654
113.45,99.71023
113.5,89.3315
113.55,80.9229
113.6,72.36635
113.65,63.94259
113.7,55.88823
113.75,49.47081
113.8,44.15673
113.85,37.9731
113.9,32.14928
113.95,26.74723
114,21.71363
114.05,17.74742
114.1,14.67612
114.15,12.89509
114.2,11.28034
114.25,9.924342
114.3,9.132343
114.35,9.072082
114.4,9.21199
114.45,9.467169
114.5,9.738168
114.55,9.148802
114.6,7.061984
114.65,4.033567
114.7,1.398594
114.75,3.287501E-02
114.8,-0.7220166
114.85,-0.7487571
114.9,-0.5225586
114.95,-0.875892
115,-1.291639
115.05,-1.409407
115.1,-1.013973
115.15,-0.4161797
115.2,-0.353966
115.25,-0.7838796
115.3,-1.475282
115.35,-1.671369
115.4,-1.79099
115.45,-1.882661
115.5,-1.566849
115.55,-1.163071
115.6,-1.114367
115.65,-1.380989
115.7,-1.749889
115.75,-1.824208
115.8,-1.853993
115.85,-2.28538
115.9,-2.072431
115.95,-1.867529
116,-1.917198
116.05,-2.180504
116.1,-2.563703
116.15,-2.43769
116.2,-2.422055
116.25,-2.853627
116.3,-3.560506
116.35,-4.179582
116.4,-4.675405
116.45,-4.923874
116.5,-4.77525
116.55,-4.502025
116.6,-4.403006
116.65,-4.564119
116.7,-4.993777
116.75,-5.296932
116.8,-5.325924
116.85,-5.469571
116.9,-5.642559
116.95,-5.839077
117,-6.017841
117.05,-6.013389
117.1,-6.025304
117.15,-5.807385
117.2,-5.585529
117.25,-5.687955
117.3,-5.747912
117.35,-5.57818
117.4,-5.377528
117.45,-5.380376
117.5,-5.520191
117.55,-5.737625
117.6,-5.995623
117.65,-6.218658
117.7,-6.241016
117.75,-5.802333
117.8,-5.479912
117.85,-5.469153
117.9,-5.696028
117.95,-5.873112
118,-6.05318
118.05,-6.11464
118.1,-6.206724
118.15,-6.123935
118.2,-6.305199
118.25,-6.242279
118.3,-6.105148
118.35,-5.621638
118.4,-5.23778
118.45,-5.20574
118.5,-5.448177
118.55,-5.826709
118.6,-6.228036
118.65,-6.422495
118.7,-6.281158
118.75,-6.156232
118.8,-6.037139
118.85,-6.237325
118.9,-6.358801
118.95,-6.293622
119,-6.326594
119.05,-6.196052
119.1,-6.003831
119.15,-6.195547
119.2,-6.168654
119.25,-6.186234
119.3,-6.264602
119.35,-6.192657
119.4,-6.187007
119.45,-6.207143
119.5,-6.158674
119.55,-6.098755
119.6,-5.99269
119.65,-5.961393
119.7,-6.18442
119.75,-6.353364
119.8,-6.483371
119.85,-6.626741
119.9,-6.665182
119.95,-6.651759
120,-6.722386
120.05,-6.646788
120.1,-6.660217
120.15,-6.522463
120.2,-6.3731
120.25,-6.347961
120.3,-6.3491
120.35,-6.115713
120.4,-5.928406
120.45,-5.910093
120.5,-6.03109
120.55,-6.237581
120.6,-6.452691
120.65,-6.633549
120.7,-6.677242
120.75,-6.518011
120.8,-6.374588
120.85,-6.366542
120.9,-6.310522
120.95,-6.352816
121,-6.384746
121.05,-6.506876
121.1,-6.578704
121.15,-6.526013
121.2,-6.456799
121.25,-6.313886
121.3,-6.285932
121.35,-6.401504
121.4,-6.579459
121.45,-6.746483
121.5,-6.81569
121.55,-6.780149
121.6,-6.720543
121.65,-6.623041
121.7,-6.472629
121.75,-6.385326
121.8,-6.246524
121.85,-6.088925
121.9,-5.991364
121.95,-5.86898
122,-5.900142
122.05,-6.066194
122.1,-6.204469
122.15,-6.482462
122.2,-6.660237
122.25,-6.739032
122.3,-6.748169
122.35,-6.681779
122.4,-6.672977
122.45,-6.695667
122.5,-6.616757
122.55,-6.493156
122.6,-6.412209
122.65,-6.371097
122.7,-6.423593
122.75,-6.538015
122.8,-6.613637
122.85,-6.655134
122.9,-6.6615
122.95,-6.592492
123,-6.634378
123.05,-6.565631
123.1,-6.529429
123.15,-6.488296
123.2,-6.479953
123.25,-6.577784
123.3,-6.612088
123.35,-6.521167
123.4,-6.411834
123.45,-6.255052
123.5,-6.090083
123.55,-6.049498
123.6,-6.08436
123.65,-6.081259
123.7,-6.088748
123.75,-6.15536
123.8,-6.285138
123.85,-6.36412
123.9,-6.491807
123.95,-6.512075
124,-6.596514
124.05,-6.601021
124.1,-6.560231
124.15,-6.565391
124.2,-6.524837
124.25,-6.413992
124.3,-6.345159
124.35,-6.326069
124.4,-6.503386
124.45,-6.595311
124.5,-6.540143
124.55,-6.513583
124.6,-6.525663
124.65,-6.528616
124.7,-6.539219
124.75,-6.609077
124.8,-6.70109
124.85,-6.695993
124.9,-6.390172
124.95,-6.419199
125,-6.423736
125.05,-6.504666
125.1,-6.61233
125.15,-6.659078
125.2,-6.618145
125.25,-6.485722
125.3,-6.33256
125.35,-6.299094
125.4,-6.303043
125.45,-6.342515
125.5,-6.424981
125.55,-6.491769
125.6,-6.522885
125.65,-6.540326
125.7,-6.561775
125.75,-6.548796
125.8,-6.407355
125.85,-6.306634
125.9,-6.219977
125.95,-6.234552
126,-6.301397
126.05,-6.393758
126.1,-6.509343
126.15,-6.539215
126.2,-6.483574
126.25,-6.475147
126.3,-6.495401
126.35,-6.545791
126.4,-6.500403
126.45,-6.427554
126.5,-6.419963
126.55,-6.461874
126.6,-6.549732
126.65,-6.692546
126.7,-6.811344
126.75,-6.815239
126.8,-6.768392
126.85,-6.688447
126.9,-6.620662
126.95,-6.524272
127,-6.548534
127.05,-6.61358
127.1,-6.618995
127.15,-6.553359
127.2,-6.563643
127.25,-6.649784
127.3,-6.638979
127.35,-6.585442
127.4,-6.509063
127.45,-6.382156
127.5,-6.28469
127.55,-6.299096
127.6,-6.411325
127.65,-6.570379
127.7,-6.699425
127.75,-6.736018
127.8,-6.722797
127.85,-6.64073
127.9,-6.671766
127.95,-6.752592
128,-6.647919
128.05,-6.48217
128.1,-6.398206
128.15,-6.386281
128.2,-6.343051
128.25,-6.451862
128.3,-6.473975
128.35,-6.456629
128.4,-6.399784
128.45,-6.391571
128.5,-6.470732
128.55,-6.602543
128.6,-6.698053
128.65,-6.730723
128.7,-6.746333
128.75,-6.675045
128.8,-6.673261
128.85,-6.648577
128.9,-6.69878
128.95,-6.834386
129,-7.021698
129.05,-7.110414
129.1,-7.197258
129.15,-7.192762
129.2,-7.096781
129.25,-6.950059
129.3,-6.872833
129.35,-6.887762
129.4,-6.924362
129.45,-6.944459
129.5,-6.974389
129.55,-7.007137
129.6,-7.010379
129.65,-6.992441
129.7,-6.973209
129.75,-6.953696
129.8,-6.912179
129.85,-6.842206
129.9,-6.821607
129.95,-6.81355
130,-6.807388
130.05,-6.872175
130.1,-6.963332
130.15,-6.862656
130.2,-6.794889
130.25,-6.783371
130.3,-6.822621
130.35,-6.896623
130.4,-6.992214
130.45,-7.100127
130.5,-7.124573
130.55,-7.021765
130.6,-6.95683
130.65,-6.989967
130.7,-6.96775
130.75,-6.945067
130.8,-6.968597
130.85,-7.013617
130.9,-7.064235
130.95,-7.053147
131,-7.042114
131.05,-7.129424
131.1,-7.098686
131.15,-7.055298
131.2,-7.090106
131.25,-7.078976
131.3,-7.015036
131.35,-6.967299
131.4,-6.97266
131.45,-7.034752
131.5,-7.103027
131.55,-7.164432
131.6,-7.24353
131.65,-7.317722
131.7,-7.375971
131.75,-7.429112
131.8,-7.383792
131.85,-7.229251
131.9,-7.098252
131.95,-7.009284
132,-6.996048
132.05,-7.095402
132.1,-7.22288
132.15,-7.293949
132.2,-7.333134
132.25,-7.277783
132.3,-7.219016
132.35,-7.148329
132.4,-7.136927
132.45,-7.160271
132.5,-7.171623
132.55,-7.224757
132.6,-7.241889
132.65,-7.090747
132.7,-6.902606
132.75,-6.845209
132.8,-6.896988
132.85,-6.860744
132.9,-6.918343
132.95,-7.04081
133,-7.158112
133.05,-6.872181
133.1,-6.795084
133.15,-6.845352
133.2,-6.885676
133.25,-6.937446
133.3,-7.123776
133.35,-7.327597
133.4,-7.431853
133.45,-7.410556
133.5,-7.409955
133.55,-7.3996
133.6,-7.307096
133.65,-7.240393
133.7,-7.228441
133.75,-7.28022
133.8,-7.395773
133.85,-7.548079
133.9,-7.655523
133.95,-7.716978
134,-7.671875
134.05,-7.592145
134.1,-7.530919
134.15,-7.419484
134.2,-7.407855
134.25,-7.43719
134.3,-7.440949
134.35,-7.4378
134.4,-7.426025
134.45,-7.420907
134.5,-7.436314
134.55,-7.444387
134.6,-7.501147
134.65,-7.590858
134.7,-7.570449
134.75,-7.511797
134.8,-7.409173
134.85,-7.385798
134.9,-7.290627
134.95,-7.2602
135,-7.236206
135.05,-7.259469
135.1,-7.21196
135.15,-7.235729
135.2,-7.254363
135.25,-7.359729
135.3,-7.383372
135.35,-7.420313
135.4,-7.404382
135.45,-7.381909
135.5,-7.398296
135.55,-7.452289
135.6,-7.504608
135.65,-7.516265
135.7,-7.504653
135.75,-7.445691
135.8,-7.43035
135.85,-7.402773
135.9,-7.38871
135.95,-7.451062
136,-7.536469
136.05,-7.591138
136.1,-7.632009
136.15,-7.644558
136.2,-7.629463
136.25,-7.544289
136.3,-7.486553
136.35,-7.553831
136.4,-7.616281
136.45,-7.644629
136.5,-7.709724
136.55,-7.782395
136.6,-7.7974
136.65,-7.767274
136.7,-7.72758
136.75,-7.699357
136.8,-7.672956
136.85,-7.597517
136.9,-7.615119
136.95,-7.642286
137,-7.58847
137.05,-7.607877
137.1,-7.602558
137.15,-7.566116
137.2,-7.548231
137.25,-7.53316
137.3,-7.581302
137.35,-7.62008
137.4,-7.639673
137.45,-7.631148
137.5,-7.607974
137.55,-7.579824
137.6,-7.534348
137.65,-7.519485
137.7,-7.578557
137.75,-7.636342
137.8,-7.678873
137.85,-7.736595
137.9,-7.751359
137.95,-7.827523
138,-7.764008
 
Alignment,On
