Data File Name,NexteraRPT_jlc_High Sensitivity DNA Assay_DE24802700_2016-08-25_11-16-11.xad
Data File Path,C:\Users\jlchiniquy\Desktop\JGI_Computer_BackUp\JBEI,SynBio\MiSeq\20171205_Nextera_library_size_to_loading_concentration_tool\JLChiniquy
Date Created,"Thursday, August 25, 2016 6:16:11 PM"
Date Last Modified,"Friday, August 26, 2016 10:27:07 PM"
Version Created,B.02.07.SI532
Version Last Modified,B.02.08.SI648
 
Assay Name,High Sensitivity DNA
Assay Path,C:\Program Files\Agilent\2100 bioanalyzer\2100 expert\assays\dsDNA
Assay Title,High Sensitivity DNA Assay
Assay Version,1.0
 
Number of Samples Run,11
 
Sample Name,Ladder
Number of Events,2121
 
Time,Value
32,4.275513E-02
32.05,4.275513E-02
32.1,4.275513E-02
32.15,4.275513E-02
32.2,4.275513E-02
32.25,4.275513E-02
32.3,4.275513E-02
32.35,4.275513E-02
32.4,4.275513E-02
32.45,4.275513E-02
32.5,4.275513E-02
32.55,4.275513E-02
32.6,4.275513E-02
32.65,4.275513E-02
32.7,4.275513E-02
32.75,4.275513E-02
32.8,4.275513E-02
32.85,4.275513E-02
32.9,4.275513E-02
32.95,4.275513E-02
33,4.275513E-02
33.05,4.275513E-02
33.1,4.275513E-02
33.15,4.275513E-02
33.2,4.275513E-02
33.25,4.275513E-02
33.3,4.275513E-02
33.35,4.275513E-02
33.4,4.275513E-02
33.45,4.275513E-02
33.5,4.275513E-02
33.55,4.275513E-02
33.6,4.275513E-02
33.65,4.275513E-02
33.7,0.1078288
33.75,0.2406327
33.8,0.2521289
33.85,0.2944646
33.9,0.1616499
33.95,4.469756E-02
34,4.845673E-02
34.05,6.756496E-02
34.1,3.982497E-02
34.15,2.242023E-02
34.2,-0.1066838
34.25,-0.1815541
34.3,-0.2543361
34.35,-0.1742431
34.4,-0.1433953
34.45,-0.1025026
34.5,-0.1271446
34.55,-0.1112685
34.6,-0.1035523
34.65,-6.785245E-02
34.7,-6.270687E-02
34.75,-5.541107E-02
34.8,-0.1130717
34.85,-7.393152E-02
34.9,-0.1297128
34.95,-0.1633676
35,-0.1698495
35.05,-0.2815439
35.1,-0.3995531
35.15,-0.4229659
35.2,-0.3892458
35.25,-0.2898158
35.3,-0.2668761
35.35,-0.1791757
35.4,-0.1788896
35.45,-0.1648707
35.5,-0.126212
35.55,-0.1575189
35.6,-0.1489471
35.65,-0.2430837
35.7,-0.3188953
35.75,-0.351941
35.8,-0.3217601
35.85,-0.1834007
35.9,-0.144918
35.95,-0.2810623
36,-0.23744
36.05,-0.2875972
36.1,-0.3241141
36.15,-0.3281389
36.2,-0.3003871
36.25,-0.2445879
36.3,-0.2218432
36.35,-0.2696039
36.4,-0.2035215
36.45,-0.2244333
36.5,-0.320763
36.55,-0.3797486
36.6,-0.5773803
36.65,-0.6290163
36.7,-0.5588628
36.75,-0.4462394
36.8,-0.3570302
36.85,-0.3918427
36.9,-0.4404539
36.95,-0.416153
37,-0.5881686
37.05,-0.5836939
37.1,-0.5484737
37.15,-0.4498134
37.2,-0.4764239
37.25,-0.3232873
37.3,-0.1721374
37.35,-0.1111618
37.4,-0.2317071
37.45,-0.289704
37.5,-0.3088346
37.55,-0.2439882
37.6,-0.1769538
37.65,-0.1263511
37.7,-0.171023
37.75,-0.206492
37.8,-0.2758297
37.85,-0.2464998
37.9,-0.2368117
37.95,-0.2621194
38,-0.2514905
38.05,-0.2913006
38.1,-0.2353422
38.15,-0.2022644
38.2,-0.1548244
38.25,-0.1783994
38.3,-0.2372079
38.35,-0.1901338
38.4,-0.2003221
38.45,-0.1991538
38.5,-0.2632841
38.55,-0.2144046
38.6,-0.2251981
38.65,-0.1715241
38.7,-0.1377453
38.75,-0.1358014
38.8,-0.293176
38.85,-0.3387048
38.9,-0.4206983
38.95,-0.3408135
39,-0.3029714
39.05,-0.2476939
39.1,-0.3773231
39.15,-0.4564549
39.2,-0.531571
39.25,-0.5295793
39.3,-0.4707897
39.35,-0.4059454
39.4,-0.5387359
39.45,-0.797576
39.5,-0.9551502
39.55,-0.9209021
39.6,-0.8802044
39.65,-0.7186432
39.7,-0.6383976
39.75,-0.7149416
39.8,-0.8398432
39.85,-0.7744751
39.9,-0.6127456
39.95,-0.535032
40,-0.4252116
40.05,-0.4399673
40.1,-0.5942261
40.15,-0.6840914
40.2,-0.6955908
40.25,-0.630222
40.3,-0.598016
40.35,-0.5623907
40.4,-0.5248619
40.45,-0.57537
40.5,-0.5406359
40.55,-0.5351534
40.6,-0.586608
40.65,-0.635838
40.7,-0.6294239
40.75,-0.5320043
40.8,-0.4401347
40.85,-0.3456213
40.9,-0.3068321
40.95,-0.395845
41,-0.5790159
41.05,-0.6237477
41.1,-0.6371688
41.15,-0.6906065
41.2,-0.7238311
41.25,-0.6841135
41.3,-0.6368616
41.35,-0.5812118
41.4,-0.5521914
41.45,-0.4999177
41.5,-0.6222914
41.55,-0.849355
41.6,-0.8950981
41.65,-0.9557959
41.7,-0.9278575
41.75,-0.8771334
41.8,-0.9765784
41.85,-0.9803135
41.9,-1.109999
41.95,-1.223466
42,-1.209877
42.05,-1.206615
42.1,-1.138855
42.15,-1.037158
42.2,-1.020472
42.25,-0.8539699
42.3,-0.9005731
42.35,-0.8931409
42.4,-0.9194199
42.45,-0.8773192
42.5,-0.5899956
42.55,0.3954467
42.6,2.413615
42.65,6.484364
42.7,13.33563
42.75,23.6906
42.8,37.112
42.85,52.50458
42.9,67.49303
42.95,78.67104
43,83.1073
43.05,79.91561
43.1,69.58562
43.15,54.70912
43.2,38.77624
43.25,24.87249
43.3,14.54536
43.35,7.899614
43.4,4.425014
43.45,2.93132
43.5,2.312833
43.55,2.109336
43.6,2.048927
43.65,1.864112
43.7,1.691734
43.75,1.583179
43.8,1.395945
43.85,1.170619
43.9,0.9820918
43.95,0.8356796
44,0.6823414
44.05,0.5627342
44.1,0.4602413
44.15,0.3715737
44.2,0.3243054
44.25,0.1428413
44.3,-0.1268049
44.35,-0.3364927
44.4,-0.3980574
44.45,-0.4273286
44.5,-0.4273992
44.55,-0.3201146
44.6,-0.3774628
44.65,-0.4380837
44.7,-0.4694521
44.75,-0.1906177
44.8,0.2199638
44.85,0.6238481
44.9,1.104213
44.95,1.997764
45,4.02323
45.05,8.085633
45.1,16.09812
45.15,30.01759
45.2,50.24651
45.25,76.23023
45.3,104.5994
45.35,129.7207
45.4,145.7494
45.45,148.4334
45.5,137.0332
45.55,114.0947
45.6,85.48072
45.65,57.63003
45.7,34.92701
45.75,19.55388
45.8,10.87359
45.85,6.835169
45.9,5.204375
45.95,4.356501
46,3.822715
46.05,3.187986
46.1,2.641933
46.15,2.303187
46.2,2.012388
46.25,1.809213
46.3,1.592341
46.35,1.429827
46.4,1.265082
46.45,0.9352008
46.5,0.6485072
46.55,0.3929213
46.6,0.2128744
46.65,0.1217079
46.7,6.133185E-02
46.75,0.1269163
46.8,4.422676E-02
46.85,-0.1107068
46.9,-0.1632322
46.95,-0.3374637
47,-0.3635398
47.05,-0.488986
47.1,-0.6045284
47.15,-0.680451
47.2,-0.678022
47.25,-0.5635431
47.3,-0.4346023
47.35,-0.3716868
47.4,-0.3291289
47.45,-0.5330553
47.5,-0.6952909
47.55,-0.7453085
47.6,-0.7204138
47.65,-0.7030033
47.7,-0.7160526
47.75,-0.6936582
47.8,-0.6767499
47.85,-0.6409699
47.9,-0.6251235
47.95,-0.5601963
48,-0.489552
48.05,-0.4857786
48.1,-0.4775528
48.15,-0.4490705
48.2,-0.4678418
48.25,-0.5074461
48.3,-0.5306997
48.35,-0.4095084
48.4,-0.2964932
48.45,-0.3493429
48.5,-0.3688341
48.55,-0.479043
48.6,-0.4894416
48.65,-0.4118812
48.7,-0.3222718
48.75,-0.386776
48.8,-0.3939373
48.85,-0.4623948
48.9,-0.4658775
48.95,-0.5009013
49,-0.4958318
49.05,-0.4596402
49.1,-0.5596237
49.15,-0.5823653
49.2,-0.5601501
49.25,-0.5975081
49.3,-0.6533839
49.35,-0.711608
49.4,-0.8092171
49.45,-0.7858635
49.5,-0.8809777
49.55,-0.8656374
49.6,-0.9112921
49.65,-0.9153935
49.7,-0.9163127
49.75,-0.8494785
49.8,-0.830385
49.85,-0.8771511
49.9,-0.9675186
49.95,-1.112276
50,-1.169982
50.05,-1.108955
50.1,-1.009432
50.15,-0.9065611
50.2,-0.8494464
50.25,-0.9391914
50.3,-0.9387097
50.35,-1.015592
50.4,-0.9415752
50.45,-0.9412456
50.5,-0.9001139
50.55,-0.8193863
50.6,-0.7812235
50.65,-0.8410174
50.7,-0.8953931
50.75,-0.9667656
50.8,-0.8214292
50.85,-0.3653575
50.9,1.386111
50.95,5.507599
51,13.94579
51.05,28.84986
51.1,51.10817
51.15,79.73302
51.2,110.564
51.25,137.0191
51.3,152.4857
51.35,152.6256
51.4,137.4947
51.45,111.4675
51.5,81.38956
51.55,53.89933
51.6,32.95752
51.65,19.70937
51.7,12.49959
51.75,9.126424
51.8,7.576769
51.85,6.673475
51.9,5.923519
51.95,5.13011
52,4.381862
52.05,3.773689
52.1,3.009779
52.15,2.444769
52.2,2.016793
52.25,1.760014
52.3,1.342457
52.35,0.9625481
52.4,0.692008
52.45,0.5479927
52.5,0.4088781
52.55,0.4564618
52.6,0.5017177
52.65,0.6200023
52.7,0.6113806
52.75,0.7771298
52.8,0.7679659
52.85,0.6911812
52.9,0.5880952
52.95,0.4187922
53,0.1313532
53.05,4.586422E-02
53.1,8.293335E-02
53.15,0.1613276
53.2,0.1431177
53.25,0.2586881
53.3,0.461837
53.35,0.6229844
53.4,0.8129693
53.45,1.080306
53.5,1.22223
53.55,1.063356
53.6,0.8052074
53.65,0.6336412
53.7,0.4621997
53.75,0.2388251
53.8,0.1570867
53.85,9.328042E-02
53.9,6.375223E-02
53.95,2.372865E-02
54,2.272057E-03
54.05,-3.493408E-02
54.1,-9.945876E-02
54.15,-0.2141705
54.2,-0.2331342
54.25,-0.2517374
54.3,-0.2346456
54.35,-0.2435017
54.4,-0.3079049
54.45,-0.3857261
54.5,-0.4461214
54.55,-0.5345066
54.6,-0.44473
54.65,-0.3033932
54.7,-0.3327351
54.75,-0.4647596
54.8,-0.6141469
54.85,-0.6243237
54.9,-0.6173037
54.95,-0.602783
55,-0.5326001
55.05,-0.4728312
55.1,-0.4744852
55.15,-0.4265574
55.2,-0.4125122
55.25,-0.5036807
55.3,-0.6222712
55.35,-0.7556149
55.4,-0.7258054
55.45,-0.6247638
55.5,-0.5140532
55.55,-0.5075316
55.6,-0.5977713
55.65,-0.6658574
55.7,-0.7066031
55.75,-0.5665544
55.8,0.1723131
55.85,2.472127
55.9,8.030646
55.95,19.81643
56,40.32763
56.05,70.08268
56.1,106.7858
56.15,145.2222
56.2,178.1734
56.25,198.5304
56.3,201.3739
56.35,186.0085
56.4,155.7533
56.45,118.4774
56.5,81.8885
56.55,52.34344
56.6,32.491
56.65,21.34935
56.7,15.87708
56.75,13.08012
56.8,11.14031
56.85,9.63958
56.9,8.0261
56.95,6.837052
57,5.903176
57.05,5.207337
57.1,4.640611
57.15,4.024857
57.2,3.578762
57.25,3.125203
57.3,2.614439
57.35,2.194991
57.4,1.816681
57.45,1.514421
57.5,1.287511
57.55,1.073923
57.6,1.007531
57.65,0.7287046
57.7,0.4852891
57.75,0.2699935
57.8,0.1373514
57.85,5.004846E-02
57.9,1.392952E-02
57.95,7.853274E-02
58,0.1059671
58.05,8.638252E-02
58.1,0.1010677
58.15,4.131764E-02
58.2,0.043628
58.25,-9.979208E-02
58.3,-0.1453194
58.35,-0.2610866
58.4,-0.4284893
58.45,-0.3742001
58.5,-0.3263568
58.55,-0.2693421
58.6,-0.2270718
58.65,-0.2301731
58.7,-0.2226671
58.75,-0.3422282
58.8,-0.4054182
58.85,-0.3032473
58.9,-0.280202
58.95,-0.1166579
59,7.327583E-02
59.05,0.207466
59.1,0.2028525
59.15,0.1747486
59.2,0.1588844
59.25,0.0852644
59.3,-5.088758E-02
59.35,-0.1259228
59.4,-0.1410416
59.45,-0.1569641
59.5,-0.2108152
59.55,-0.1576117
59.6,-0.1050008
59.65,-0.0525512
59.7,3.816015E-02
59.75,5.870357E-02
59.8,0.1229662
59.85,-6.905129E-02
59.9,-0.1723223
59.95,-0.173518
60,-9.868893E-02
60.05,1.826681E-02
60.1,8.707518E-02
60.15,0.122707
60.2,0.1505356
60.25,0.0669052
60.3,8.279722E-02
60.35,5.798909E-02
60.4,-1.941573E-03
60.45,-2.098021E-02
60.5,2.304098E-02
60.55,4.756461E-02
60.6,0.2976784
60.65,1.334106
60.7,4.565055
60.75,12.11514
60.8,26.42716
60.85,49.04832
60.9,80.31583
60.95,117.8737
61,156.3764
61.05,188.5559
61.1,208.8453
61.15,213.1262
61.2,199.9986
61.25,172.403
61.3,138.8845
61.35,104.0528
61.4,73.40835
61.45,50.30372
61.5,35.5064
61.55,26.93539
61.6,22.00987
61.65,19.45054
61.7,18.28827
61.75,16.21943
61.8,14.27685
61.85,12.24521
61.9,10.58394
61.95,9.430176
62,8.378883
62.05,7.483091
62.1,6.703852
62.15,5.865944
62.2,5.083471
62.25,4.474816
62.3,4.233863
62.35,4.017467
62.4,3.809181
62.45,3.657008
62.5,3.481351
62.55,3.19095
62.6,2.856766
62.65,2.475467
62.7,2.112118
62.75,1.825635
62.8,1.549086
62.85,1.233155
62.9,1.055239
62.95,1.010716
63,0.9695922
63.05,0.91537
63.1,0.7969648
63.15,0.6552948
63.2,0.5634846
63.25,0.4587445
63.3,0.4155171
63.35,0.3971211
63.4,0.3279935
63.45,0.266981
63.5,0.2132119
63.55,0.265337
63.6,0.2275021
63.65,0.1311116
63.7,0.1544123
63.75,0.1812025
63.8,0.2237778
63.85,0.2708833
63.9,0.3535515
63.95,0.4119102
64,0.4312766
64.05,0.517588
64.1,0.5281308
64.15,0.479598
64.2,0.4153387
64.25,0.4158785
64.3,0.3828396
64.35,0.360417
64.4,0.4216042
64.45,0.3982915
64.5,0.3812474
64.55,0.4656743
64.6,0.5218928
64.65,0.5548218
64.7,0.48773
64.75,0.400162
64.8,0.3124859
64.85,0.2746404
64.9,0.2770064
64.95,0.3065714
65,0.3091202
65.05,0.3211384
65.1,0.3099372
65.15,0.3008661
65.2,0.2923327
65.25,0.2844247
65.3,0.1811097
65.35,0.2177304
65.4,0.2749079
65.45,0.2797032
65.5,0.3074188
65.55,0.276116
65.6,0.1966566
65.65,0.1711209
65.7,0.1452295
65.75,0.1419947
65.8,9.643503E-02
65.85,-3.063743E-02
65.9,-0.152254
65.95,-0.3293892
66,-0.3437908
66.05,-0.2820482
66.1,-0.2572298
66.15,-0.1808215
66.2,-0.1007413
66.25,-0.1348466
66.3,-0.1281248
66.35,-9.020402E-02
66.4,7.439756E-03
66.45,8.089019E-02
66.5,0.155367
66.55,0.2134763
66.6,0.1562373
66.65,4.794925E-02
66.7,-6.750955E-02
66.75,-5.989209E-02
66.8,7.102836E-02
66.85,0.2559124
66.9,0.4141731
66.95,0.4393969
67,0.3609048
67.05,0.268168
67.1,0.2507775
67.15,0.2493705
67.2,0.178147
67.25,0.172708
67.3,0.1955766
67.35,0.1248623
67.4,5.754369E-02
67.45,4.936386E-02
67.5,7.866138E-02
67.55,7.528199E-02
67.6,0.1861053
67.65,0.3301349
67.7,0.2812683
67.75,0.1469758
67.8,0.1353271
67.85,0.2259645
67.9,0.2851175
67.95,0.3148736
68,0.3141125
68.05,0.222139
68.1,6.484002E-02
68.15,-5.507804E-02
68.2,-0.1268947
68.25,-0.2137138
68.3,-0.2339069
68.35,-0.1423829
68.4,-4.275291E-02
68.45,-3.653359E-02
68.5,-6.218691E-02
68.55,-0.1076873
68.6,-0.1429833
68.65,-0.1264308
68.7,-9.551954E-02
68.75,-4.235602E-02
68.8,-0.0689247
68.85,-0.1314705
68.9,-0.134627
68.95,-0.1702064
69,-0.1389179
69.05,-8.387014E-02
69.1,-4.981038E-02
69.15,4.301596E-02
69.2,0.0432724
69.25,0.0378947
69.3,-8.477554E-03
69.35,8.462752E-02
69.4,0.4286806
69.45,0.6343241
69.5,0.6604581
69.55,0.5419989
69.6,0.3616149
69.65,0.2295055
69.7,0.1396058
69.75,0.2529472
69.8,0.355428
69.85,0.2979688
69.9,0.3370472
69.95,0.7548466
70,2.436541
70.05,6.631154
70.1,15.37047
70.15,30.42789
70.2,53.37941
70.25,85.58425
70.3,124.6588
70.35,165.5553
70.4,202.3587
70.45,230.2755
70.5,246.224
70.55,249.2918
70.6,238.8301
70.65,215.0177
70.7,181.313
70.75,143.4814
70.8,107.4425
70.85,78.47507
70.9,58.53027
70.95,46.1083
71,37.81574
71.05,31.88823
71.1,27.75891
71.15,24.49951
71.2,21.70931
71.25,19.59666
71.3,17.64069
71.35,15.66722
71.4,14.19322
71.45,13.04161
71.5,11.85531
71.55,10.5027
71.6,9.163468
71.65,7.927409
71.7,6.99431
71.75,6.498614
71.8,6.361103
71.85,6.142077
71.9,5.758574
71.95,5.25709
72,4.778371
72.05,4.330108
72.1,4.008717
72.15,3.792269
72.2,3.706004
72.25,3.579186
72.3,3.355785
72.35,3.055766
72.4,2.744828
72.45,2.443096
72.5,2.164
72.55,1.957089
72.6,1.791734
72.65,1.715697
72.7,1.686207
72.75,1.612104
72.8,1.520807
72.85,1.406867
72.9,1.287273
72.95,1.088547
73,0.901889
73.05,0.817693
73.1,0.775255
73.15,0.7163112
73.2,0.6955889
73.25,0.6559234
73.3,0.5539213
73.35,0.4827236
73.4,0.4217002
73.45,0.380836
73.5,0.3796733
73.55,0.3089775
73.6,0.2197088
73.65,0.1563175
73.7,0.1246502
73.75,9.585675E-02
73.8,0.1085176
73.85,0.1322911
73.9,6.772675E-02
73.95,5.935883E-02
74,0.1174922
74.05,0.1389559
74.1,6.975421E-02
74.15,4.603194E-02
74.2,0.1338701
74.25,0.1202082
74.3,3.77136E-03
74.35,-6.124088E-02
74.4,-0.1669071
74.45,-0.2881846
74.5,-0.2796001
74.55,-0.1046782
74.6,7.432581E-02
74.65,0.1425599
74.7,0.1400752
74.75,0.2008312
74.8,0.242155
74.85,0.2416668
74.9,0.2546599
74.95,0.1788194
75,6.027465E-02
75.05,-4.172763E-03
75.1,-2.203459E-02
75.15,-4.871524E-02
75.2,-4.245719E-02
75.25,6.756715E-02
75.3,0.1465584
75.35,0.1567258
75.4,0.166368
75.45,9.686302E-02
75.5,2.947666E-02
75.55,1.543178E-02
75.6,6.518459E-02
75.65,0.118658
75.7,0.1402807
75.75,0.1361326
75.8,5.576199E-02
75.85,-1.679992E-02
75.9,5.423378E-03
75.95,-4.996569E-02
76,-0.1965404
76.05,-0.1988973
76.1,-9.650929E-02
76.15,-0.1072829
76.2,-0.2082407
76.25,-0.3127646
76.3,-0.4331169
76.35,-0.5012009
76.4,-0.4258591
76.45,-0.3198992
76.5,-0.3237828
76.55,-0.3880671
76.6,-0.4411244
76.65,-0.5105298
76.7,-0.5810806
76.75,-0.5866872
76.8,-0.6315219
76.85,-0.6645443
76.9,-0.5633761
76.95,-0.4610381
77,-0.4311455
77.05,-0.4553882
77.1,-0.4687307
77.15,-0.4477627
77.2,-0.4220176
77.25,-0.3890918
77.3,-0.3382041
77.35,-0.2622323
77.4,-0.221213
77.45,-0.1797272
77.5,-0.1134124
77.55,-0.1031833
77.6,-0.1165357
77.65,-0.1792127
77.7,-8.067273E-02
77.75,0.4704354
77.8,1.929511
77.85,5.361967
77.9,12.22675
77.95,24.24228
78,42.85648
78.05,69.14777
78.1,102.4564
78.15,140.8144
78.2,180.1893
78.25,216.065
78.3,245.5336
78.35,266.0216
78.4,276.0591
78.45,273.3312
78.5,257.9688
78.55,232.6159
78.6,200.2685
78.65,166.1457
78.7,134.0522
78.75,106.2038
78.8,84.07118
78.85,66.94584
78.9,54.63404
78.95,45.90099
79,39.11785
79.05,33.89821
79.1,29.58762
79.15,26.3846
79.2,24.01643
79.25,21.70739
79.3,19.08465
79.35,16.27807
79.4,13.66811
79.45,11.80534
79.5,10.68704
79.55,9.826365
79.6,9.075508
79.65,8.317239
79.7,7.382853
79.75,6.415362
79.8,5.647494
79.85,5.160724
79.9,4.788744
79.95,4.434865
80,4.213592
80.05,3.989845
80.1,3.740225
80.15,3.596592
80.2,3.428755
80.25,3.148428
80.3,2.738887
80.35,2.277259
80.4,1.927392
80.45,1.704628
80.5,1.615383
80.55,1.59068
80.6,1.540041
80.65,1.499665
80.7,1.443694
80.75,1.315307
80.8,1.201641
80.85,1.122711
80.9,1.083805
80.95,1.00755
81,0.8546098
81.05,0.7334024
81.1,0.6394498
81.15,0.5048453
81.2,0.4764537
81.25,0.5000265
81.3,0.4439186
81.35,0.3269714
81.4,0.2341357
81.45,0.1670652
81.5,6.472383E-02
81.55,-0.1005795
81.6,-0.2007591
81.65,-0.2031782
81.7,-0.1762338
81.75,-0.1678833
81.8,-0.2352432
81.85,-0.3603742
81.9,-0.4336399
81.95,-0.4023609
82,-0.2737211
82.05,-0.1242819
82.1,-1.742471E-02
82.15,-3.543505E-02
82.2,-0.1706276
82.25,-0.3470841
82.3,-0.3916074
82.35,-0.23051
82.4,-4.074247E-02
82.45,5.067949E-02
82.5,-6.685345E-02
82.55,-0.3270966
82.6,-0.5844554
82.65,-0.7416697
82.7,-0.699223
82.75,-0.6278242
82.8,-0.5839485
82.85,-0.6093052
82.9,-0.6574516
82.95,-0.6817322
83,-0.6721079
83.05,-0.6020852
83.1,-0.4646591
83.15,-0.3358044
83.2,-0.1534628
83.25,3.408309E-02
83.3,0.5111439
83.35,1.494001
83.4,3.891576
83.45,8.840819
83.5,17.54702
83.55,30.7467
83.6,49.46449
83.65,73.94621
83.7,103.3087
83.75,135.4548
83.8,168.5625
83.85,199.5353
83.9,224.4683
83.95,241.3483
84,250.9465
84.05,252.8095
84.1,246.1882
84.15,231.0946
84.2,209.2873
84.25,182.5599
84.3,154.3836
84.35,128.8578
84.4,108.1293
84.45,91.7581
84.5,78.69425
84.55,68.15572
84.6,59.58342
84.65,52.57775
84.7,47.00306
84.75,42.29708
84.8,38.22195
84.85,34.62403
84.9,31.05342
84.95,28.03556
85,25.73925
85.05,24.01066
85.1,22.18571
85.15,20.27955
85.2,18.52315
85.25,16.98285
85.3,15.62604
85.35,14.57882
85.4,13.65672
85.45,12.76568
85.5,11.78049
85.55,10.85092
85.6,9.982263
85.65,9.222393
85.7,8.560157
85.75,8.042756
85.8,7.570936
85.85,7.137199
85.9,6.608511
85.95,5.960293
86,5.391623
86.05,4.875665
86.1,4.440564
86.15,3.965883
86.2,3.591644
86.25,3.387176
86.3,3.259086
86.35,3.017101
86.4,2.633012
86.45,2.18651
86.5,1.888739
86.55,1.737417
86.6,1.657795
86.65,1.521686
86.7,1.373602
86.75,1.02979
86.8,0.7133976
86.85,0.5291879
86.9,0.3310247
86.95,0.1537826
87,1.013226E-02
87.05,-8.279222E-02
87.1,-8.073549E-02
87.15,-0.2152006
87.2,-0.3445237
87.25,-0.3636315
87.3,-0.309935
87.35,-0.1848923
87.4,-0.1770414
87.45,-0.3164451
87.5,-0.4526249
87.55,-0.6522806
87.6,-0.6725879
87.65,-0.5955083
87.7,-0.5873267
87.75,-0.6220369
87.8,-0.7116055
87.85,-0.6957799
87.9,-0.4640429
87.95,-9.352331E-03
88,0.530261
88.05,1.52117
88.1,3.742776
88.15,7.9732
88.2,15.49581
88.25,27.89355
88.3,45.87426
88.35,68.68729
88.4,96.92195
88.45,130.2218
88.5,166.1327
88.55,202.167
88.6,236.6441
88.65,266.9594
88.7,289.8019
88.75,304.2653
88.8,309.5013
88.85,306.0063
88.9,294.8508
88.95,276.2493
89,252.3918
89.05,225.1716
89.1,195.8027
89.15,166.4722
89.2,139.5681
89.25,117.1547
89.3,99.27073
89.35,84.93475
89.4,73.65921
89.45,64.22466
89.5,56.05273
89.55,49.12459
89.6,43.07468
89.65,37.53382
89.7,33.11038
89.75,29.16031
89.8,25.61857
89.85,22.96217
89.9,20.87398
89.95,18.92621
90,16.98032
90.05,15.44877
90.1,14.08282
90.15,12.64256
90.2,11.57625
90.25,10.60092
90.3,9.59959
90.35,8.595627
90.4,7.582204
90.45,6.773904
90.5,6.259674
90.55,5.800436
90.6,5.501573
90.65,4.92648
90.7,4.282424
90.75,3.662688
90.8,3.546446
90.85,4.061931
90.9,4.911881
90.95,6.015161
91,7.658551
91.05,10.86455
91.1,16.93666
91.15,27.36738
91.2,42.57111
91.25,62.95449
91.3,87.84908
91.35,116.9743
91.4,149.7708
91.45,184.4082
91.5,218.1689
91.55,248.2211
91.6,272.4479
91.65,289.1959
91.7,298.155
91.75,298.8382
91.8,291.3026
91.85,276.7647
91.9,256.0522
91.95,230.1436
92,202.1848
92.05,174.0471
92.1,148.5362
92.15,125.6372
92.2,106.604
92.25,91.73891
92.3,79.81452
92.35,69.49276
92.4,61.508
92.45,54.78365
92.5,48.33602
92.55,41.68784
92.6,36.12334
92.65,31.70999
92.7,28.71001
92.75,26.89251
92.8,25.92943
92.85,24.36532
92.9,22.2105
92.95,19.83308
93,17.74892
93.05,15.89847
93.1,14.5096
93.15,13.16692
93.2,11.54819
93.25,10.45554
93.3,9.990123
93.35,9.549094
93.4,9.067314
93.45,8.65845
93.5,8.104413
93.55,7.382924
93.6,6.882458
93.65,6.802666
93.7,6.652955
93.75,6.098469
93.8,5.460615
93.85,4.874709
93.9,4.237039
93.95,3.695116
94,3.310648
94.05,2.894717
94.1,2.422878
94.15,2.08325
94.2,2.03977
94.25,2.036662
94.3,2.130563
94.35,2.216738
94.4,2.224577
94.45,2.148017
94.5,1.837217
94.55,1.55193
94.6,1.266211
94.65,0.9569705
94.7,0.988984
94.75,1.227165
94.8,1.419108
94.85,1.567662
94.9,1.714166
94.95,2.69978
95,4.730549
95.05,8.271326
95.1,13.98544
95.15,22.58213
95.2,35.04748
95.25,51.56771
95.3,72.2263
95.35,97.00581
95.4,126.2797
95.45,156.5382
95.5,186.3586
95.55,215.5396
95.6,244.3262
95.65,267.9308
95.7,285.9698
95.75,297.0225
95.8,302.4326
95.85,300.5433
95.9,292.2808
95.95,279.9424
96,264.0538
96.05,245.3486
96.1,225.3412
96.15,204.2448
96.2,183.9265
96.25,163.2122
96.3,142.7515
96.35,125.5371
96.4,110.728
96.45,97.79898
96.5,85.91907
96.55,76.01262
96.6,67.41476
96.65,59.26934
96.7,51.47312
96.75,45.28109
96.8,39.50255
96.85,34.65124
96.9,30.96804
96.95,28.19451
97,25.60692
97.05,23.16943
97.1,20.86019
97.15,19.24261
97.2,17.4853
97.25,15.86742
97.3,14.4065
97.35,12.8918
97.4,11.36587
97.45,9.966577
97.5,8.778598
97.55,8.074619
97.6,7.464447
97.65,7.236462
97.7,6.862981
97.75,6.299327
97.8,5.532815
97.85,4.914575
97.9,4.604037
97.95,4.528013
98,4.547022
98.05,4.465664
98.1,4.140785
98.15,3.732622
98.2,3.259753
98.25,3.039505
98.3,2.925951
98.35,2.862654
98.4,2.708052
98.45,2.496157
98.5,2.381136
98.55,2.435344
98.6,2.543594
98.65,2.58958
98.7,2.609376
98.75,2.504225
98.8,2.247843
98.85,2.178473
98.9,2.449707
98.95,2.806831
99,2.896038
99.05,2.62377
99.1,2.349588
99.15,2.131562
99.2,1.957999
99.25,1.984086
99.3,2.081653
99.35,2.183976
99.4,2.223948
99.45,2.337557
99.5,2.444268
99.55,2.443536
99.6,2.461507
99.65,2.474594
99.7,2.538805
99.75,2.449358
99.8,2.305173
99.85,2.190752
99.9,2.12629
99.95,2.088892
100,1.99947
100.05,1.859361
100.1,1.772434
100.15,1.86126
100.2,2.037327
100.25,2.340215
100.3,2.390012
100.35,1.925932
100.4,1.429559
100.45,1.339926
100.5,1.537908
100.55,1.627129
100.6,1.774067
100.65,3.267671
100.7,5.757984
100.75,9.709115
100.8,16.74029
100.85,26.15536
100.9,41.0256
100.95,59.33318
101,84.7944
101.05,114.5989
101.1,145.8961
101.15,181.0599
101.2,217.7307
101.25,256.3984
101.3,293.4804
101.35,326.1024
101.4,356.8329
101.45,378.3273
101.5,390.5183
101.55,392.5673
101.6,387.4594
101.65,374.7465
101.7,355.3236
101.75,333.0998
101.8,309.8375
101.85,281.9496
101.9,252.9672
101.95,222.7098
102,195.1579
102.05,168.7215
102.1,147.6877
102.15,129.7896
102.2,113.974
102.25,99.77138
102.3,88.08672
102.35,76.01469
102.4,66.36597
102.45,57.98495
102.5,50.59616
102.55,43.37654
102.6,38.03352
102.65,34.18744
102.7,30.40571
102.75,26.74
102.8,24.02684
102.85,21.31029
102.9,19.35762
102.95,18.345
103,17.33467
103.05,15.38792
103.1,13.32368
103.15,11.72571
103.2,10.18589
103.25,9.321987
103.3,8.846004
103.35,8.443347
103.4,7.778959
103.45,7.365533
103.5,7.873804
103.55,9.527562
103.6,12.71853
103.65,18.24534
103.7,26.76785
103.75,39.09187
103.8,57.39105
103.85,81.51986
103.9,111.3508
103.95,145.5851
104,181.8518
104.05,216.7225
104.1,248.958
104.15,282.4628
104.2,314.8083
104.25,341.8428
104.3,370.0226
104.35,388.8385
104.4,402.4239
104.45,408.0325
104.5,403.8481
104.55,392.3687
104.6,372.1533
104.65,348.7801
104.7,321.3496
104.75,286.8503
104.8,258.6065
104.85,232.5651
104.9,206.6189
104.95,182.575
105,161.2876
105.05,140.4286
105.1,119.4675
105.15,102.8907
105.2,91.98093
105.25,81.62471
105.3,71.00052
105.35,62.20315
105.4,55.12266
105.45,47.64092
105.5,41.72998
105.55,36.69223
105.6,33.43272
105.65,30.60023
105.7,27.76598
105.75,25.22544
105.8,22.91528
105.85,21.47265
105.9,20.09657
105.95,19.32799
106,18.2744
106.05,15.95139
106.1,13.82962
106.15,12.40085
106.2,11.76045
106.25,11.9257
106.3,12.04591
106.35,12.12839
106.4,11.59033
106.45,11.43978
106.5,11.54932
106.55,11.74437
106.6,11.80885
106.65,11.12814
106.7,10.35968
106.75,9.614635
106.8,9.455355
106.85,8.736872
106.9,8.287627
106.95,8.489152
107,8.47578
107.05,8.397681
107.1,8.504876
107.15,8.518094
107.2,8.000014
107.25,6.686974
107.3,6.421471
107.35,6.496692
107.4,7.138185
107.45,7.551534
107.5,7.990074
107.55,7.654451
107.6,6.93689
107.65,6.265402
107.7,6.144915
107.75,6.097808
107.8,6.234953
107.85,6.335186
107.9,6.859087
107.95,6.916085
108,6.809622
108.05,6.87484
108.1,6.762064
108.15,7.185876
108.2,7.157336
108.25,7.008368
108.3,6.864778
108.35,6.638669
108.4,7.022739
108.45,7.999957
108.5,10.11051
108.55,12.95567
108.6,17.08756
108.65,21.55525
108.7,27.42348
108.75,35.40251
108.8,48.76545
108.85,65.576
108.9,86.93464
108.95,110.833
109,134.4192
109.05,158.2329
109.1,182.3701
109.15,207.3627
109.2,240.4509
109.25,272.4103
109.3,299.8525
109.35,315.92
109.4,319.1461
109.45,325.4451
109.5,330.0187
109.55,331.5881
109.6,332.9187
109.65,330.9236
109.7,321.6205
109.75,302.4014
109.8,280.7637
109.85,263.7253
109.9,243.7949
109.95,219.6638
110,203.8668
110.05,188.2318
110.1,167.4354
110.15,150.6386
110.2,136.1803
110.25,123.1903
110.3,111.0505
110.35,97.74749
110.4,89.56879
110.45,79.72221
110.5,69.25695
110.55,61.81145
110.6,53.62767
110.65,49.15863
110.7,46.56096
110.75,43.08219
110.8,41.02582
110.85,36.09489
110.9,30.18197
110.95,26.5865
111,24.77348
111.05,23.91234
111.1,23.28593
111.15,22.16042
111.2,20.48774
111.25,18.28802
111.3,16.32223
111.35,15.31337
111.4,13.62506
111.45,11.11178
111.5,10.05985
111.55,8.063117
111.6,6.892551
111.65,7.106167
111.7,7.15592
111.75,7.754208
111.8,7.633845
111.85,8.395335
111.9,9.141931
111.95,9.702508
112,10.80012
112.05,10.84373
112.1,14.69196
112.15,23.02631
112.2,31.17554
112.25,36.37699
112.3,40.48906
112.35,42.27446
112.4,45.09556
112.45,54.01127
112.5,68.39925
112.55,82.23222
112.6,93.94073
112.65,104.4804
112.7,113.2956
112.75,118.3109
112.8,119.7829
112.85,126.588
112.9,133.047
112.95,140.1713
113,147.5768
113.05,146.0984
113.1,138.8705
113.15,124.4371
113.2,114.6674
113.25,110.1537
113.3,102.4171
113.35,97.83398
113.4,94.72042
113.45,84.83033
113.5,77.27068
113.55,69.72009
113.6,63.36959
113.65,52.6042
113.7,43.40235
113.75,37.84594
113.8,33.3862
113.85,29.07615
113.9,28.5814
113.95,27.33996
114,22.7035
114.05,20.37052
114.1,19.42168
114.15,18.05846
114.2,16.57401
114.25,14.5691
114.3,13.71976
114.35,11.76988
114.4,9.705586
114.45,9.423949
114.5,7.993887
114.55,7.148049
114.6,6.829401
114.65,6.735143
114.7,6.87994
114.75,5.491867
114.8,4.775757
114.85,4.430229
114.9,3.629008
114.95,3.732366
115,4.716215
115.05,5.48836
115.1,5.227988
115.15,4.866194
115.2,5.09533
115.25,4.859133
115.3,3.742096
115.35,3.545536
115.4,3.86295
115.45,3.750418
115.5,3.526303
115.55,3.380537
115.6,2.465374
115.65,1.172333
115.7,-0.2079661
115.75,-0.4594518
115.8,-0.36178
115.85,-0.0118615
115.9,0.1849463
115.95,7.464317E-02
116,-3.850397E-02
116.05,0.0683537
116.1,1.496626E-02
116.15,-0.5585687
116.2,-1.205496
116.25,-1.562406
116.3,-2.050235
116.35,-2.198696
116.4,-2.061221
116.45,-1.798916
116.5,-1.326483
116.55,-1.259015
116.6,-1.076621
116.65,-1.612687
116.7,-1.857035
116.75,-1.768668
116.8,-1.715627
116.85,-1.520658
116.9,-1.60902
116.95,-2.194398
117,-2.71073
117.05,-2.986847
117.1,-2.805444
117.15,-2.666189
117.2,-2.373153
117.25,-2.350875
117.3,-2.647159
117.35,-2.750608
117.4,-2.428048
117.45,-2.080582
117.5,-2.257998
117.55,-2.397555
117.6,-2.755548
117.65,-3.129331
117.7,-3.269075
117.75,-2.981574
117.8,-2.563357
117.85,-2.638095
117.9,-2.79137
117.95,-2.806824
118,-2.690018
118.05,-2.368205
118.1,-2.119956
118.15,-1.940931
118.2,-1.883228
118.25,-2.186969
118.3,-2.364217
118.35,-2.222389
118.4,-2.02114
118.45,-2.304287
118.5,-2.601325
118.55,-2.792586
118.6,-3.164278
118.65,-3.487869
118.7,-3.482441
118.75,-3.230705
118.8,-3.305067
118.85,-3.256019
118.9,-3.023097
118.95,-2.881819
119,-2.710818
119.05,-2.57293
119.1,-2.755644
119.15,-3.182063
119.2,-3.738282
119.25,-4.262666
119.3,-4.317014
119.35,-4.052532
119.4,-3.539233
119.45,-3.259437
119.5,-3.283904
119.55,-3.51843
119.6,-3.618844
119.65,-3.844635
119.7,-3.817195
119.75,-3.921471
119.8,-3.942951
119.85,-4.016049
119.9,-3.452042
119.95,-2.719806
120,-2.433942
120.05,-2.306704
120.1,-2.554442
120.15,-2.533835
120.2,-2.789517
120.25,-3.033729
120.3,-3.074397
120.35,-3.301189
120.4,-3.623135
120.45,-3.509112
120.5,-3.34968
120.55,-2.737656
120.6,-2.663512
120.65,-2.878412
120.7,-3.015561
120.75,-3.027012
120.8,-3.330527
120.85,-3.471936
120.9,-3.649459
120.95,-3.809826
121,-4.085905
121.05,-4.303973
121.1,-4.118958
121.15,-4.014409
121.2,-4.077128
121.25,-4.119948
121.3,-4.0157
121.35,-3.919334
121.4,-3.925037
121.45,-3.825394
121.5,-3.53554
121.55,-3.428691
121.6,-3.402155
121.65,-3.20848
121.7,-3.095773
121.75,-3.312922
121.8,-3.70652
121.85,-3.90931
121.9,-4.032698
121.95,-3.993626
122,-3.824926
122.05,-3.628215
122.1,-3.775507
122.15,-3.975957
122.2,-4.143534
122.25,-4.230175
122.3,-4.306544
122.35,-4.202823
122.4,-4.061271
122.45,-3.954624
122.5,-3.98371
122.55,-4.098442
122.6,-3.971839
122.65,-3.902335
122.7,-3.960362
122.75,-3.93511
122.8,-4.011559
122.85,-4.206074
122.9,-4.490886
122.95,-4.17429
123,-3.777089
123.05,-3.447011
123.1,-3.426487
123.15,-3.524172
123.2,-3.812581
123.25,-4.003173
123.3,-4.090629
123.35,-3.85713
123.4,-3.718809
123.45,-3.339352
123.5,-3.314435
123.55,-3.32665
123.6,-3.492583
123.65,-3.465258
123.7,-3.629838
123.75,-3.705709
123.8,-3.773216
123.85,-3.807878
123.9,-3.974589
123.95,-4.083458
124,-4.1518
124.05,-3.695139
124.1,-3.673524
124.15,-3.775331
124.2,-3.986808
124.25,-4.228512
124.3,-4.464148
124.35,-4.598885
124.4,-4.533428
124.45,-4.369171
124.5,-4.448341
124.55,-4.46321
124.6,-4.378734
124.65,-4.356607
124.7,-4.252357
124.75,-4.280373
124.8,-4.365489
124.85,-4.574812
124.9,-4.662735
124.95,-4.668246
125,-4.528744
125.05,-4.442078
125.1,-4.423793
125.15,-4.56315
125.2,-4.665708
125.25,-4.794865
125.3,-4.812018
125.35,-4.669611
125.4,-4.28125
125.45,-3.963388
125.5,-3.842111
125.55,-3.793504
125.6,-3.917975
125.65,-4.289201
125.7,-4.55035
125.75,-4.653491
125.8,-4.576153
125.85,-4.491874
125.9,-4.39366
125.95,-4.245051
126,-4.205251
126.05,-4.206407
126.1,-4.043238
126.15,-4.004515
126.2,-4.062153
126.25,-4.145082
126.3,-4.272331
126.35,-4.334533
126.4,-4.421427
126.45,-4.208937
126.5,-4.039471
126.55,-3.9343
126.6,-4.046354
126.65,-4.188342
126.7,-4.384465
126.75,-4.523198
126.8,-4.466121
126.85,-4.181408
126.9,-4.100593
126.95,-4.105699
127,-4.265604
127.05,-4.365382
127.1,-4.474569
127.15,-4.50999
127.2,-4.494685
127.25,-4.494975
127.3,-4.474865
127.35,-4.428508
127.4,-4.345128
127.45,-4.32661
127.5,-4.474376
127.55,-4.58145
127.6,-4.639347
127.65,-4.686346
127.7,-4.735228
127.75,-4.792909
127.8,-4.821025
127.85,-4.761246
127.9,-4.621092
127.95,-4.500135
128,-4.4304
128.05,-4.454846
128.1,-4.506023
128.15,-4.475312
128.2,-4.420755
128.25,-4.377381
128.3,-4.385102
128.35,-4.394419
128.4,-4.347525
128.45,-4.308011
128.5,-4.281571
128.55,-4.258121
128.6,-4.322093
128.65,-4.4336
128.7,-4.43152
128.75,-4.360419
128.8,-4.347931
128.85,-4.310062
128.9,-4.269062
128.95,-4.236954
129,-4.273225
129.05,-4.222904
129.1,-4.235369
129.15,-4.267606
129.2,-4.337135
129.25,-4.333059
129.3,-4.37185
129.35,-4.481543
129.4,-4.526803
129.45,-4.567943
129.5,-4.630738
129.55,-4.54898
129.6,-4.537468
129.65,-4.565547
129.7,-4.699611
129.75,-4.763748
129.8,-4.716343
129.85,-4.601101
129.9,-4.511755
129.95,-4.443217
130,-4.401165
130.05,-4.395811
130.1,-4.380039
130.15,-4.413532
130.2,-4.51425
130.25,-4.610647
130.3,-4.710343
130.35,-4.610571
130.4,-4.56046
130.45,-4.553689
130.5,-4.55223
130.55,-4.584004
130.6,-4.53982
130.65,-4.450781
130.7,-4.338327
130.75,-4.332423
130.8,-4.457083
130.85,-4.510777
130.9,-4.538156
130.95,-4.631844
131,-4.624231
131.05,-4.501873
131.1,-4.340429
131.15,-4.279506
131.2,-4.242389
131.25,-4.297105
131.3,-4.383318
131.35,-4.37666
131.4,-4.276486
131.45,-4.127871
131.5,-4.065296
131.55,-4.007023
131.6,-3.965982
131.65,-4.023692
131.7,-3.880287
131.75,-3.801933
131.8,-3.932541
131.85,-4.051204
131.9,-4.049073
131.95,-4.07562
132,-4.171588
132.05,-3.975977
132.1,-3.716374
132.15,-3.751214
132.2,-3.981731
132.25,-4.230187
132.3,-4.465653
132.35,-4.603669
132.4,-4.539348
132.45,-4.341156
132.5,-4.240881
132.55,-4.251183
132.6,-4.305324
132.65,-4.385242
132.7,-4.404944
132.75,-4.405627
132.8,-4.551051
132.85,-4.586436
132.9,-4.627014
132.95,-4.618099
133,-4.551874
133.05,-4.551257
133.1,-4.460405
133.15,-4.460439
133.2,-4.514371
133.25,-4.58514
133.3,-4.664052
133.35,-4.624398
133.4,-4.556083
133.45,-4.469593
133.5,-4.383808
133.55,-4.4164
133.6,-4.439193
133.65,-4.486822
133.7,-4.486599
133.75,-4.468647
133.8,-4.437967
133.85,-4.409675
133.9,-4.474019
133.95,-4.470648
134,-4.48424
134.05,-4.479801
134.1,-4.486831
134.15,-4.422909
134.2,-4.400425
134.25,-4.297037
134.3,-4.213483
134.35,-4.169285
134.4,-4.20886
134.45,-4.335262
134.5,-4.483133
134.55,-4.526947
134.6,-4.561195
134.65,-4.299105
134.7,-3.991903
134.75,-3.808105
134.8,-3.864079
134.85,-4.093131
134.9,-4.23259
134.95,-4.386478
135,-4.426446
135.05,-4.345722
135.1,-4.339753
135.15,-4.521067
135.2,-4.748273
135.25,-4.786904
135.3,-4.682616
135.35,-4.601195
135.4,-4.572361
135.45,-4.632443
135.5,-4.700013
135.55,-4.852654
135.6,-4.957593
135.65,-4.960294
135.7,-4.871128
135.75,-4.758246
135.8,-4.659381
135.85,-4.613942
135.9,-4.624191
135.95,-4.645739
136,-4.592999
136.05,-4.485929
136.1,-4.408586
136.15,-4.382105
136.2,-4.440483
136.25,-4.592593
136.3,-4.635235
136.35,-4.492566
136.4,-4.357183
136.45,-4.334584
136.5,-4.438907
136.55,-4.627632
136.6,-4.779627
136.65,-4.762254
136.7,-4.621395
136.75,-4.4828
136.8,-4.485665
136.85,-4.500713
136.9,-4.527575
136.95,-4.508213
137,-4.418021
137.05,-4.328822
137.1,-4.265832
137.15,-4.192826
137.2,-4.186011
137.25,-4.137918
137.3,-4.101126
137.35,-4.057183
137.4,-4.089027
137.45,-4.257481
137.5,-4.363526
137.55,-4.421968
137.6,-4.547893
137.65,-4.579781
137.7,-4.616011
137.75,-4.578773
137.8,-4.578456
137.85,-4.622739
137.9,-4.599017
137.95,-4.631153
138,-4.638481
 
Alignment,On
