Data File Name,Nextera2_jlc_High Sensitivity DNA Assay_DE24802700_2016-09-01_11-31-05.xad
Data File Path,C:\Users\jlchiniquy\Desktop\20171205_Nextera_library_size_to_loading_concentration_tool\JLChiniquy
Date Created,"Thursday, September 01, 2016 6:31:05 PM"
Date Last Modified,"Friday, November 17, 2017 12:23:26 AM"
Version Created,B.02.07.SI532
Version Last Modified,B.02.08.SI648
 
Assay Name,High Sensitivity DNA
Assay Path,C:\Program Files\Agilent\2100 bioanalyzer\2100 expert\assays\dsDNA
Assay Title,High Sensitivity DNA Assay
Assay Version,1.0
 
Number of Samples Run,11
 
Sample Name,Ladder
Number of Events,2121
 
Time,Value
32,-0.3228455
32.05,-0.3228455
32.1,-0.3228455
32.15,-0.3228455
32.2,-0.3228455
32.25,-0.3228455
32.3,-0.3228455
32.35,-0.3228455
32.4,-0.3228455
32.45,-0.3228455
32.5,-0.3228455
32.55,-0.3228455
32.6,-0.3228455
32.65,-0.3228455
32.7,-0.3228455
32.75,-0.3228455
32.8,-0.3228455
32.85,-0.3228455
32.9,-0.3228455
32.95,-0.3228455
33,-0.3969272
33.05,-0.4068701
33.1,-0.2780228
33.15,-0.11271
33.2,-1.785868E-02
33.25,2.243274E-02
33.3,0.0799112
33.35,0.15891
33.4,0.1447365
33.45,9.270376E-02
33.5,1.373998E-02
33.55,-1.408104E-02
33.6,-4.429505E-02
33.65,0.027756
33.7,0.1723542
33.75,0.2340178
33.8,0.2802373
33.85,0.4049473
33.9,0.5400164
33.95,0.618188
34,0.5741078
34.05,0.5489521
34.1,0.3896028
34.15,0.3783948
34.2,0.3889344
34.25,0.4242057
34.3,0.4083934
34.35,0.2911179
34.4,0.2741356
34.45,0.2538839
34.5,0.2658966
34.55,0.2238621
34.6,5.923981E-02
34.65,-0.1445601
34.7,-0.3014679
34.75,-0.3309304
34.8,-0.2822123
34.85,-0.2701674
34.9,-0.2552263
34.95,-0.2394281
35,-0.1867593
35.05,-4.633389E-02
35.1,5.212533E-03
35.15,4.487602E-02
35.2,-1.515522E-02
35.25,-0.0483402
35.3,-6.404061E-03
35.35,3.858001E-02
35.4,0.118997
35.45,0.1456856
35.5,0.1327614
35.55,0.141947
35.6,0.1176151
35.65,0.1776312
35.7,0.1204192
35.75,0.1327903
35.8,0.1528016
35.85,0.1172965
35.9,0.2095761
35.95,0.3867598
36,0.6182579
36.05,0.6446363
36.1,0.5601943
36.15,0.4392517
36.2,0.2943074
36.25,0.2513489
36.3,0.2918494
36.35,0.3114673
36.4,0.3290882
36.45,0.3701021
36.5,0.457424
36.55,0.5358843
36.6,0.5527655
36.65,0.582849
36.7,0.4528455
36.75,0.3471231
36.8,0.1962505
36.85,0.0905539
36.9,0.1648453
36.95,0.3915584
37,0.5022372
37.05,0.4987379
37.1,0.4080114
37.15,0.3207217
37.2,0.1573156
37.25,0.2166359
37.3,0.2251772
37.35,0.296072
37.4,0.2971749
37.45,0.3181088
37.5,0.3371881
37.55,0.3661983
37.6,0.3844559
37.65,0.2751042
37.7,0.1935255
37.75,0.17264
37.8,0.1862967
37.85,0.3416837
37.9,0.4882014
37.95,0.5041998
38,0.4717182
38.05,0.4076181
38.1,0.3297681
38.15,0.2940979
38.2,0.3505409
38.25,0.3814199
38.3,0.395214
38.35,0.5203658
38.4,0.6507141
38.45,0.6234994
38.5,0.5895623
38.55,0.4790253
38.6,0.3868482
38.65,0.2937459
38.7,0.3320445
38.75,0.4778203
38.8,0.5218628
38.85,0.4977188
38.9,0.3675911
38.95,0.197979
39,7.545117E-02
39.05,4.129647E-02
39.1,0.1200779
39.15,0.2207271
39.2,0.2504083
39.25,0.1395894
39.3,-1.293602E-02
39.35,-5.966263E-02
39.4,-0.1281276
39.45,-0.1298441
39.5,-0.1635631
39.55,-0.2241162
39.6,-0.2291917
39.65,-0.2626936
39.7,-0.2730635
39.75,-0.2587059
39.8,-0.3140264
39.85,-0.2678018
39.9,-0.2788298
39.95,-0.226062
40,-0.1707744
40.05,-0.2787124
40.1,-0.3898679
40.15,-0.392298
40.2,-0.4393116
40.25,-0.3734544
40.3,-0.2502589
40.35,-0.1418207
40.4,-9.014317E-02
40.45,-0.1638526
40.5,-0.2054015
40.55,-0.2831103
40.6,-0.2865292
40.65,-0.2535616
40.7,-0.1982432
40.75,-0.1902703
40.8,-0.1980436
40.85,-0.2061864
40.9,-0.1948676
40.95,-0.1848791
41,-0.1606503
41.05,-0.1039245
41.1,-6.410682E-02
41.15,-5.018944E-02
41.2,-0.1291714
41.25,-0.171133
41.3,-0.2288509
41.35,-0.3789947
41.4,-0.2886217
41.45,-0.288196
41.5,-0.2711509
41.55,-0.2909759
41.6,-0.2971462
41.65,-0.3353454
41.7,-0.4045387
41.75,-0.4246936
41.8,-0.3830933
41.85,-0.3793449
41.9,-0.2592866
41.95,-0.2584159
42,-0.3599876
42.05,-0.5267116
42.1,-0.5863304
42.15,-0.5996937
42.2,-0.6487819
42.25,-0.7008092
42.3,-0.7473896
42.35,-0.820984
42.4,-0.7727607
42.45,-0.4908422
42.5,0.1806241
42.55,1.569109
42.6,4.435227
42.65,9.679157
42.7,17.91882
42.75,29.27101
42.8,43.29724
42.85,58.1159
42.9,71.39239
42.95,79.82135
43,81.15097
43.05,74.96072
43.1,62.99812
43.15,48.03595
43.2,33.26229
43.25,20.93919
43.3,12.17564
43.35,6.66384
43.4,3.843012
43.45,2.737227
43.5,2.370819
43.55,2.168941
43.6,2.027057
43.65,1.8917
43.7,1.755125
43.75,1.599986
43.8,1.414914
43.85,1.204534
43.9,0.9484197
43.95,0.8157564
44,0.7222962
44.05,0.6643961
44.1,0.5986864
44.15,0.4701516
44.2,0.3845316
44.25,0.2850869
44.3,0.1644753
44.35,0.1661959
44.4,0.1543685
44.45,0.2156301
44.5,1.430973E-02
44.55,-0.1668323
44.6,-0.2514082
44.65,-0.3006692
44.7,-0.1469249
44.75,0.2737461
44.8,0.7074801
44.85,1.290513
44.9,2.57355
44.95,5.417542
45,11.24437
45.05,21.87411
45.1,39.04448
45.15,63.10061
45.2,92.7194
45.25,124.043
45.3,150.3318
45.35,165.2911
45.4,165.0073
45.45,149.1042
45.5,121.5059
45.55,89.17327
45.6,58.99144
45.65,35.24207
45.7,19.37748
45.75,10.522
45.8,6.180487
45.85,4.237733
45.9,3.404669
45.95,2.93605
46,2.610318
46.05,2.408346
46.1,2.137549
46.15,1.758481
46.2,1.488441
46.25,1.28731
46.3,1.102625
46.35,0.9061913
46.4,0.8220696
46.45,0.6573402
46.5,0.4954518
46.55,0.3627881
46.6,0.1994914
46.65,1.596856E-02
46.7,-0.1727198
46.75,-0.2945511
46.8,-0.4508459
46.85,-0.5957748
46.9,-0.6275648
46.95,-0.6040775
47,-0.6183334
47.05,-0.6022025
47.1,-0.5370023
47.15,-0.5043083
47.2,-0.4930422
47.25,-0.4043734
47.3,-0.4495116
47.35,-0.5727715
47.4,-0.7260824
47.45,-0.802128
47.5,-0.8063319
47.55,-0.9012644
47.6,-0.9135593
47.65,-0.9534371
47.7,-0.8287939
47.75,-0.6384579
47.8,-0.5298917
47.85,-0.4895045
47.9,-0.5032992
47.95,-0.6302459
48,-0.7276115
48.05,-0.7910441
48.1,-0.7974113
48.15,-0.7790188
48.2,-0.7120107
48.25,-0.591786
48.3,-0.5159914
48.35,-0.5212441
48.4,-0.5894194
48.45,-0.6844595
48.5,-0.6917467
48.55,-0.7029418
48.6,-0.6440391
48.65,-0.5305323
48.7,-0.5515892
48.75,-0.5999858
48.8,-0.7129445
48.85,-0.774598
48.9,-0.8728601
48.95,-1.04275
49,-1.022099
49.05,-0.995556
49.1,-1.078486
49.15,-1.08037
49.2,-1.109111
49.25,-1.144884
49.3,-1.170749
49.35,-1.168665
49.4,-1.129954
49.45,-1.22397
49.5,-1.272505
49.55,-1.218442
49.6,-1.191711
49.65,-1.135867
49.7,-1.040959
49.75,-1.014926
49.8,-1.084344
49.85,-1.073457
49.9,-1.063136
49.95,-1.091966
50,-1.127763
50.05,-1.117341
50.1,-1.160492
50.15,-1.199631
50.2,-1.113737
50.25,-0.9675469
50.3,-0.9356524
50.35,-0.9011411
50.4,-0.9367298
50.45,-0.9444941
50.5,-1.008419
50.55,-1.120087
50.6,-1.121271
50.65,-0.8961089
50.7,-7.073274E-02
50.75,2.721678
50.8,9.390115
50.85,22.295
50.9,43.06471
50.95,71.77399
51,105.7243
51.05,139.534
51.1,165.4379
51.15,176.3863
51.2,169.7655
51.25,146.8446
51.3,113.6426
51.35,78.70463
51.4,49.07182
51.45,28.01789
51.5,15.28237
51.55,9.354674
51.6,6.734367
51.65,5.404463
51.7,4.514213
51.75,3.832773
51.8,3.183681
51.85,2.739895
51.9,2.324626
51.95,1.862362
52,1.329688
52.05,1.023782
52.1,0.6472108
52.15,0.3493257
52.2,0.1245968
52.25,-0.1693683
52.3,-0.3567511
52.35,-0.4017248
52.4,-0.3152739
52.45,-0.1830264
52.5,-0.15576
52.55,-6.454961E-02
52.6,5.131339E-02
52.65,7.741024E-02
52.7,5.143616E-02
52.75,-5.303459E-02
52.8,-0.1583992
52.85,-0.2173385
52.9,-0.1813593
52.95,-5.914665E-02
53,3.723659E-02
53.05,0.1448188
53.1,0.2627529
53.15,0.4017884
53.2,0.4426251
53.25,0.4764823
53.3,0.44301
53.35,0.4734371
53.4,0.4364363
53.45,0.3735944
53.5,0.2229367
53.55,-8.791713E-02
53.6,-0.3596982
53.65,-0.5009601
53.7,-0.6372871
53.75,-0.7484927
53.8,-0.9443914
53.85,-1.014026
53.9,-1.041146
53.95,-1.049914
54,-1.074336
54.05,-1.172155
54.1,-1.366256
54.15,-1.459013
54.2,-1.428876
54.25,-1.380442
54.3,-1.370391
54.35,-1.450872
54.4,-1.613384
54.45,-1.757373
54.5,-1.686693
54.55,-1.473526
54.6,-1.398087
54.65,-1.386333
54.7,-1.470106
54.75,-1.484629
54.8,-1.524273
54.85,-1.466267
54.9,-1.398389
54.95,-1.388281
55,-1.350982
55.05,-1.272007
55.1,-1.250775
55.15,-1.232365
55.2,-1.37637
55.25,-1.348884
55.3,-1.29044
55.35,-1.146379
55.4,-1.084504
55.45,-1.064352
55.5,-0.7140802
55.55,0.3024106
55.6,3.061784
55.65,9.693545
55.7,23.19369
55.75,46.46674
55.8,80.39883
55.85,122.7592
55.9,167.4434
55.95,205.795
56,229.1192
56.05,231.3714
56.1,211.5596
56.15,174.5917
56.2,129.7666
56.25,86.45477
56.3,52.13266
56.35,29.80542
56.4,17.67611
56.45,12.43083
56.5,10.29558
56.55,9.111872
56.6,7.979535
56.65,6.558575
56.7,5.426316
56.75,4.381224
56.8,3.538948
56.85,3.056714
56.9,2.743889
56.95,2.421567
57,2.051895
57.05,1.637985
57.1,1.337856
57.15,1.12274
57.2,0.9876259
57.25,0.8316864
57.3,0.6663672
57.35,0.4751855
57.4,0.1376296
57.45,-8.979202E-02
57.5,-0.2434291
57.55,-0.3226874
57.6,-0.3505141
57.65,-0.269617
57.7,-0.1694435
57.75,-0.2070545
57.8,-0.349337
57.85,-0.4316642
57.9,-0.5699775
57.95,-0.5599723
58,-0.4746718
58.05,-0.4120457
58.1,-0.4056614
58.15,-0.4043172
58.2,-0.4047048
58.25,-0.4896572
58.3,-0.6405205
58.35,-0.7139004
58.4,-0.8002164
58.45,-0.8811803
58.5,-0.8731766
58.55,-0.7897742
58.6,-0.828721
58.65,-0.8763055
58.7,-0.927688
58.75,-0.9684067
58.8,-0.9330823
58.85,-0.8809187
58.9,-0.7389531
58.95,-0.7081563
59,-0.7083743
59.05,-0.7975813
59.1,-0.9471492
59.15,-0.9569473
59.2,-1.027445
59.25,-1.044454
59.3,-0.9366981
59.35,-0.7760654
59.4,-0.64147
59.45,-0.6045409
59.5,-0.6845969
59.55,-0.7783677
59.6,-0.9122293
59.65,-0.86268
59.7,-0.6680624
59.75,-0.5426916
59.8,-0.4851591
59.85,-0.4790912
59.9,-0.5111014
59.95,-0.4384251
60,-0.4281036
60.05,-0.4147358
60.1,-0.3831263
60.15,-0.3238641
60.2,-0.2426099
60.25,-8.362925E-02
60.3,0.4176179
60.35,1.955889
60.4,6.221661
60.45,16.19328
60.5,34.77751
60.55,64.18457
60.6,103.5576
60.65,149.7759
60.7,194.1362
60.75,228.5883
60.8,246.4533
60.85,243.9744
60.9,221.0063
60.95,183.3449
61,139.8146
61.05,98.73726
61.1,65.39056
61.15,43.16364
61.2,30.31231
61.25,23.97488
61.3,20.55108
61.35,18.24632
61.4,16.22949
61.45,14.1866
61.5,12.43
61.55,10.92313
61.6,9.634627
61.65,8.399738
61.7,7.053154
61.75,5.920973
61.8,5.064031
61.85,4.561265
61.9,4.315736
61.95,4.06982
62,3.718643
62.05,3.169513
62.1,2.536996
62.15,2.105446
62.2,1.854882
62.25,1.916377
62.3,1.901985
62.35,1.822699
62.4,1.542558
62.45,1.254859
62.5,1.02772
62.55,0.834664
62.6,0.8342135
62.65,0.7020136
62.7,0.5783479
62.75,0.5601236
62.8,0.6151581
62.85,0.6820643
62.9,0.7100372
62.95,0.7520912
63,0.6777152
63.05,0.5209385
63.1,0.4610271
63.15,0.4326742
63.2,0.4418017
63.25,0.4730268
63.3,0.5134835
63.35,0.5327799
63.4,0.433676
63.45,0.3976024
63.5,0.3175767
63.55,0.2633775
63.6,0.2661825
63.65,0.2928746
63.7,0.3145198
63.75,0.3130011
63.8,0.2577223
63.85,0.1523257
63.9,5.166474E-02
63.95,-4.205034E-02
64,-0.0507246
64.05,3.904881E-02
64.1,0.1333778
64.15,0.1585943
64.2,0.1560709
64.25,0.1441499
64.3,5.642652E-02
64.35,8.046034E-03
64.4,2.681466E-02
64.45,1.481669E-02
64.5,1.467175E-02
64.55,7.658952E-02
64.6,0.1608431
64.65,0.1045105
64.7,0.0622953
64.75,0.1003734
64.8,0.1435221
64.85,0.1683936
64.9,0.2203782
64.95,0.2798755
65,0.2243937
65.05,0.1359546
65.1,0.1887004
65.15,0.2016272
65.2,0.2708322
65.25,0.3183195
65.3,0.374216
65.35,0.3662169
65.4,0.425642
65.45,0.444831
65.5,0.4429507
65.55,0.4474185
65.6,0.4851812
65.65,0.5197842
65.7,0.4837286
65.75,0.4155294
65.8,0.3289534
65.85,0.2013909
65.9,0.2370225
65.95,0.3863376
66,0.4537805
66.05,0.4587136
66.1,0.3870925
66.15,0.2713496
66.2,0.1724811
66.25,4.830663E-02
66.3,-6.738541E-02
66.35,-0.2282025
66.4,-0.2775812
66.45,-0.2086953
66.5,-0.1113315
66.55,-4.439841E-02
66.6,-3.217132E-02
66.65,-1.728881E-02
66.7,-3.395292E-02
66.75,-0.1899619
66.8,-0.2492716
66.85,-0.2733221
66.9,-0.2799056
66.95,-0.2138964
67,-0.083101
67.05,6.563217E-02
67.1,9.594008E-02
67.15,5.279619E-02
67.2,2.381988E-02
67.25,-4.527912E-03
67.3,-6.269986E-02
67.35,-0.1189638
67.4,-0.1116733
67.45,-8.861565E-02
67.5,-6.796157E-02
67.55,2.483245E-03
67.6,9.883705E-02
67.65,6.789806E-02
67.7,-3.359745E-03
67.75,-6.976872E-02
67.8,-6.396861E-02
67.85,1.672642E-02
67.9,8.307227E-02
67.95,0.1209759
68,2.159362E-02
68.05,-3.003135E-02
68.1,-0.1225005
68.15,-0.2671577
68.2,-0.3065475
68.25,-0.4468056
68.3,-0.3964
68.35,-0.3307286
68.4,-0.2379618
68.45,-0.1384857
68.5,-0.293025
68.55,-0.4918968
68.6,-0.6070755
68.65,-0.6586994
68.7,-0.611307
68.75,-0.6673817
68.8,-0.7797624
68.85,-0.8238609
68.9,-0.8339546
68.95,-0.7564118
69,-0.6920612
69.05,-0.6829762
69.1,-0.6758631
69.15,-0.6691843
69.2,-0.6189093
69.25,-0.6264517
69.3,-0.7138358
69.35,-0.7770382
69.4,-0.8182777
69.45,-0.8574501
69.5,-0.6501126
69.55,-0.2528172
69.6,1.018223
69.65,4.377445
69.7,11.55256
69.75,26.21661
69.8,51.04161
69.85,87.69717
69.9,132.2405
69.95,181.2339
70,229.7047
70.05,269.2731
70.1,294.7004
70.15,302.3682
70.2,290.9876
70.25,260.9865
70.3,218.6922
70.35,173.1944
70.4,129.795
70.45,93.43033
70.5,66.74163
70.55,48.93967
70.6,37.5813
70.65,30.60457
70.7,26.66213
70.75,23.6236
70.8,20.9643
70.85,18.5073
70.9,16.33178
70.95,14.46249
71,12.59962
71.05,10.83802
71.1,9.34499
71.15,8.132454
71.2,7.209535
71.25,6.498457
71.3,6.04362
71.35,5.137722
71.4,4.164483
71.45,3.306602
71.5,2.632551
71.55,2.239967
71.6,1.838931
71.65,1.71615
71.7,1.55337
71.75,1.405129
71.8,1.429676
71.85,1.222836
71.9,1.05103
71.95,0.7854877
72,0.6039132
72.05,0.5051848
72.1,0.3558318
72.15,0.3181692
72.2,0.1999974
72.25,0.1009979
72.3,3.692897E-02
72.35,-0.0623197
72.4,-0.2005128
72.45,-0.3672566
72.5,-0.4281594
72.55,-0.2747468
72.6,-0.317522
72.65,-0.3710595
72.7,-0.5017984
72.75,-0.6628094
72.8,-0.8138199
72.85,-0.7306856
72.9,-0.7271217
72.95,-0.7845743
73,-0.9090378
73.05,-0.8298125
73.1,-0.9040973
73.15,-0.9907117
73.2,-0.9669097
73.25,-0.9551016
73.3,-0.9895399
73.35,-0.9415509
73.4,-0.8673496
73.45,-0.8648382
73.5,-0.9402991
73.55,-1.003801
73.6,-1.164192
73.65,-1.381322
73.7,-1.475918
73.75,-1.445461
73.8,-1.415792
73.85,-1.385275
73.9,-1.273274
73.95,-1.252876
74,-1.32889
74.05,-1.395901
74.1,-1.428504
74.15,-1.451218
74.2,-1.446347
74.25,-1.375995
74.3,-1.47455
74.35,-1.659992
74.4,-1.865552
74.45,-1.979455
74.5,-1.996466
74.55,-1.926051
74.6,-1.786493
74.65,-1.735052
74.7,-1.757557
74.75,-1.797723
74.8,-1.847794
74.85,-1.879126
74.9,-1.849325
74.95,-1.747593
75,-1.646249
75.05,-1.595261
75.1,-1.569167
75.15,-1.522056
75.2,-1.479076
75.25,-1.473293
75.3,-1.472537
75.35,-1.533142
75.4,-1.595869
75.45,-1.607821
75.5,-1.669084
75.55,-1.636925
75.6,-1.7233
75.65,-1.816404
75.7,-1.880582
75.75,-1.917747
75.8,-1.925573
75.85,-1.864507
75.9,-1.893929
75.95,-1.988664
76,-2.097611
76.05,-2.109485
76.1,-2.162659
76.15,-2.125876
76.2,-2.06921
76.25,-2.082774
76.3,-2.126323
76.35,-2.101295
76.4,-2.078125
76.45,-2.129779
76.5,-2.110579
76.55,-2.075568
76.6,-2.094909
76.65,-2.101388
76.7,-2.079269
76.75,-2.094206
76.8,-2.200026
76.85,-2.252245
76.9,-2.268566
76.95,-2.227088
77,-2.058877
77.05,-2.035409
77.1,-1.98936
77.15,-2.109352
77.2,-2.222937
77.25,-2.194454
77.3,-2.016906
77.35,-1.855638
77.4,-1.470417
77.45,-0.1419246
77.5,3.117458
77.55,10.07645
77.6,23.23176
77.65,43.91818
77.7,73.24059
77.75,111.5727
77.8,156.4794
77.85,204.5105
77.9,250.6925
77.95,289.6851
78,317.1949
78.05,329.9376
78.1,325.5854
78.15,305.7657
78.2,273.7894
78.25,234.0893
78.3,191.1611
78.35,149.5218
78.4,113.7038
78.45,84.38197
78.5,63.13467
78.55,49.7996
78.6,41.04441
78.65,35.14521
78.7,29.99572
78.75,25.92146
78.8,22.40814
78.85,19.92454
78.9,17.8581
78.95,15.63341
79,13.1557
79.05,10.91392
79.1,8.99698
79.15,7.487197
79.2,6.36195
79.25,5.365112
79.3,4.276626
79.35,3.415987
79.4,2.904896
79.45,2.579238
79.5,2.225778
79.55,1.773438
79.6,1.301812
79.65,0.9676824
79.7,0.7220538
79.75,0.4986232
79.8,0.2670401
79.85,2.781453E-02
79.9,-0.2627715
79.95,-0.6063809
80,-0.8237395
80.05,-1.021083
80.1,-1.235779
80.15,-1.395993
80.2,-1.532326
80.25,-1.543816
80.3,-1.550818
80.35,-1.659902
80.4,-1.7057
80.45,-1.733181
80.5,-1.788242
80.55,-1.878805
80.6,-2.079848
80.65,-2.220021
80.7,-2.379406
80.75,-2.486848
80.8,-2.510377
80.85,-2.501043
80.9,-2.576257
80.95,-2.653774
81,-2.645975
81.05,-2.561891
81.1,-2.398704
81.15,-2.264114
81.2,-2.179212
81.25,-2.266439
81.3,-2.558346
81.35,-2.778462
81.4,-2.968075
81.45,-3.022242
81.5,-2.961395
81.55,-2.778794
81.6,-2.44516
81.65,-2.464659
81.7,-2.538769
81.75,-2.585058
81.8,-2.681057
81.85,-2.861945
81.9,-2.830632
81.95,-2.697368
82,-2.620669
82.05,-2.693882
82.1,-2.661453
82.15,-2.68446
82.2,-2.693895
82.25,-2.631073
82.3,-2.576758
82.35,-2.606665
82.4,-2.619325
82.45,-2.637398
82.5,-2.664466
82.55,-2.677113
82.6,-2.677079
82.65,-2.640934
82.7,-2.629177
82.75,-2.621981
82.8,-2.644838
82.85,-2.606376
82.9,-2.493346
82.95,-2.441362
83,-2.134325
83.05,-1.518955
83.1,-0.4272694
83.15,2.197729
83.2,8.223311
83.25,18.79143
83.3,34.87175
83.35,58.76548
83.4,90.9845
83.45,128.7148
83.5,169.9408
83.55,211.1073
83.6,247.7106
83.65,276.7754
83.7,296.1026
83.75,304.8908
83.8,302.3696
83.85,289.5652
83.9,267.237
83.95,236.8907
84,202.3996
84.05,167.6454
84.1,136.3075
84.15,110.8544
84.2,91.64529
84.25,77.10091
84.3,66.14841
84.35,58.13777
84.4,51.35738
84.45,45.55041
84.5,40.48228
84.55,35.74936
84.6,31.21515
84.65,26.83181
84.7,23.96517
84.75,21.36276
84.8,18.6768
84.85,16.42695
84.9,14.40835
84.95,12.54778
85,10.57496
85.05,8.96819
85.1,7.844947
85.15,6.581535
85.2,5.635072
85.25,4.883657
85.3,4.411075
85.35,3.761436
85.4,3.049965
85.45,2.372429
85.5,1.789912
85.55,1.368486
85.6,1.016645
85.65,0.615522
85.7,0.2355782
85.75,-5.952532E-02
85.8,-0.1948607
85.85,-0.3432015
85.9,-0.5763023
85.95,-0.8950729
86,-1.207253
86.05,-1.654103
86.1,-1.77366
86.15,-1.720957
86.2,-1.713844
86.25,-1.961949
86.3,-2.151817
86.35,-2.184669
86.4,-2.312705
86.45,-2.481854
86.5,-2.577432
86.55,-2.596701
86.6,-2.745494
86.65,-2.759704
86.7,-2.713541
86.75,-2.79341
86.8,-2.936275
86.85,-3.048308
86.9,-3.034738
86.95,-2.970465
87,-2.888177
87.05,-2.819058
87.1,-2.855623
87.15,-2.846707
87.2,-2.799855
87.25,-2.554192
87.3,-2.45749
87.35,-2.479805
87.4,-2.627778
87.45,-2.798316
87.5,-2.89425
87.55,-3.018794
87.6,-3.02722
87.65,-2.966996
87.7,-3.082396
87.75,-2.92664
87.8,-2.305905
87.85,-0.8463424
87.9,1.939496
87.95,6.710897
88,15.51343
88.05,29.04247
88.1,48.37806
88.15,74.9429
88.2,109.1153
88.25,149.6554
88.3,193.913
88.35,237.8166
88.4,279.4134
88.45,315.3004
88.5,342.2692
88.55,359.2352
88.6,365.6006
88.65,360.6339
88.7,344.0182
88.75,319.1293
88.8,287.4459
88.85,251.7152
88.9,214.5178
88.95,180.3407
89,150.6225
89.05,125.7141
89.1,105.396
89.15,88.13004
89.2,73.10884
89.25,60.72222
89.3,50.90786
89.35,44.07039
89.4,38.73705
89.45,33.72193
89.5,28.54835
89.55,23.49447
89.6,19.42243
89.65,16.28456
89.7,14.16342
89.75,12.26341
89.8,10.40548
89.85,8.608202
89.9,6.943946
89.95,5.565994
90,4.457332
90.05,3.729048
90.1,3.239154
90.15,2.52308
90.2,1.900325
90.25,1.281906
90.3,0.5661938
90.35,0.0855177
90.4,-0.2679869
90.45,-0.3845016
90.5,-0.5520221
90.55,-0.9745457
90.6,-1.259906
90.65,-1.715852
90.7,-1.914332
90.75,-1.927384
90.8,-1.498187
90.85,-0.392565
90.9,1.533709
90.95,4.863569
91,11.13118
91.05,20.77679
91.1,36.16412
91.15,57.48977
91.2,85.33256
91.25,119.2971
91.3,157.3186
91.35,197.3824
91.4,237.0948
91.45,273.6138
91.5,305.2571
91.55,330.5121
91.6,346.4514
91.65,353.1918
91.7,348.7592
91.75,332.9359
91.8,309.1617
91.85,279.6259
91.9,246.1909
91.95,210.7031
92,177.1188
92.05,148.3775
92.1,122.947
92.15,102.7999
92.2,87.74635
92.25,74.76167
92.3,64.35819
92.35,55.71383
92.4,48.72619
92.45,42.24115
92.5,35.97293
92.55,30.69083
92.6,26.72756
92.65,23.46349
92.7,20.68399
92.75,17.94639
92.8,15.68711
92.85,13.2769
92.9,11.14369
92.95,9.75472
93,8.463823
93.05,7.286703
93.1,6.083547
93.15,5.15698
93.2,4.448118
93.25,3.626822
93.3,3.236234
93.35,2.97325
93.4,2.275858
93.45,1.653594
93.5,1.012621
93.55,0.8746828
93.6,0.7214937
93.65,0.5320323
93.7,0.4482739
93.75,0.2014519
93.8,-0.2136834
93.85,-0.6222497
93.9,-0.6723152
93.95,-0.8257962
94,-0.9561633
94.05,-1.032879
94.1,-1.156557
94.15,-1.309802
94.2,-1.380954
94.25,-1.346237
94.3,-1.176037
94.35,-1.017183
94.4,-0.8997166
94.45,-0.990705
94.5,-1.120445
94.55,-1.255573
94.6,-1.384048
94.65,-1.558525
94.7,-1.721149
94.75,-1.734065
94.8,-1.814601
94.85,-1.771129
94.9,-1.552935
94.95,-0.8871776
95,0.5019345
95.05,2.85227
95.1,6.871866
95.15,13.15087
95.2,21.53988
95.25,34.93007
95.3,53.09161
95.35,76.66
95.4,104.425
95.45,133.8169
95.5,166.7029
95.55,202.8617
95.6,239.1864
95.65,272.5195
95.7,302.4845
95.75,327.3099
95.8,342.9456
95.85,351.0995
95.9,352.5491
95.95,346.4846
96,334.3528
96.05,316.9062
96.1,295.3254
96.15,270.0086
96.2,243.7527
96.25,216.8432
96.3,191.0798
96.35,166.2167
96.4,143.7849
96.45,122.3685
96.5,104.4603
96.55,89.2472
96.6,75.33019
96.65,63.22438
96.7,54.05701
96.75,46.29498
96.8,40.32796
96.85,35.29326
96.9,30.48357
96.95,26.21312
97,22.34306
97.05,19.90874
97.1,18.12674
97.15,16.17677
97.2,14.06815
97.25,11.59756
97.3,9.075384
97.35,6.811537
97.4,5.468936
97.45,5.250847
97.5,5.147946
97.55,4.930286
97.6,4.745856
97.65,4.383694
97.7,3.350547
97.75,2.536383
97.8,1.929895
97.85,1.518752
97.9,1.19448
97.95,1.424731
98,1.772911
98.05,1.985073
98.1,1.922126
98.15,1.70908
98.2,0.9292716
98.25,0.8231454
98.3,0.5704712
98.35,0.4742664
98.4,0.2976743
98.45,0.1847337
98.5,0.3547084
98.55,0.6365319
98.6,0.7796696
98.65,0.5304877
98.7,-3.560095E-02
98.75,-0.3785366
98.8,-0.508215
98.85,-0.2586002
98.9,-7.339797E-03
98.95,-6.097243E-02
99,-0.3016759
99.05,-0.4319408
99.1,-2.890548E-02
99.15,0.2690151
99.2,0.21591
99.25,-0.1094951
99.3,-0.5041673
99.35,-0.8252185
99.4,-0.7381781
99.45,-0.5082889
99.5,2.343611E-02
99.55,-6.028932E-02
99.6,-0.1065808
99.65,-7.649725E-02
99.7,-1.197448E-02
99.75,-7.055452E-02
99.8,1.842778E-02
99.85,-1.167893E-03
99.9,-0.1922818
99.95,-0.3032901
100,-0.0177465
100.05,0.2851906
100.1,0.3192342
100.15,8.483066E-02
100.2,-0.138591
100.25,-0.364589
100.3,-0.4929045
100.35,-0.3825488
100.4,-0.4626921
100.45,-0.7240528
100.5,-0.7567935
100.55,-0.3438655
100.6,4.553121E-02
100.65,0.2240466
100.7,0.301559
100.75,0.5360335
100.8,1.838185
100.85,4.876799
100.9,10.49583
100.95,20.13337
101,32.85693
101.05,50.19606
101.1,74.36978
101.15,105.4199
101.2,145.2755
101.25,189.6933
101.3,237.4227
101.35,284.2699
101.4,330.945
101.45,373.9784
101.5,412.0793
101.55,443.1509
101.6,467.2389
101.65,478.1917
101.7,476.3848
101.75,463.6363
101.8,441.6419
101.85,413.5096
101.9,381.8541
101.95,348.3141
102,309.4895
102.05,266.7426
102.1,225.4951
102.15,188.9135
102.2,157.8634
102.25,131.4261
102.3,110.09
102.35,91.54237
102.4,75.55583
102.45,63.03392
102.5,52.21657
102.55,43.54274
102.6,34.41034
102.65,27.63378
102.7,22.07405
102.75,18.21768
102.8,15.60837
102.85,13.22527
102.9,11.19895
102.95,9.808678
103,8.053929
103.05,6.652336
103.1,5.708373
103.15,5.585563
103.2,5.548602
103.25,5.408212
103.3,4.778048
103.35,3.978086
103.4,3.438137
103.45,3.148252
103.5,3.084191
103.55,3.480127
103.6,3.69315
103.65,3.683563
103.7,4.875309
103.75,8.226677
103.8,14.04451
103.85,21.34397
103.9,33.11426
103.95,50.01607
104,72.5174
104.05,99.58002
104.1,130.775
104.15,171.4662
104.2,217.137
104.25,270.339
104.3,322.9137
104.35,369.7465
104.4,410.1298
104.45,440.7077
104.5,464.0938
104.55,483.364
104.6,493.4568
104.65,492.9185
104.7,480.3992
104.75,458.1609
104.8,425.5336
104.85,386.7481
104.9,348.5064
104.95,309.8212
105,269.228
105.05,229.7931
105.1,192.8684
105.15,161.1681
105.2,134.6462
105.25,114.9361
105.3,96.06351
105.35,78.09953
105.4,60.27953
105.45,47.11311
105.5,37.1578
105.55,29.5936
105.6,24.49771
105.65,20.98254
105.7,18.54609
105.75,15.78471
105.8,13.40507
105.85,11.89614
105.9,10.42021
105.95,9.322822
106,9.204299
106.05,9.703409
106.1,9.702073
106.15,9.31239
106.2,8.728281
106.25,7.388682
106.3,6.325487
106.35,6.17995
106.4,6.414733
106.45,7.078
106.5,7.887664
106.55,8.06504
106.6,7.021075
106.65,6.316628
106.7,6.702855
106.75,6.467168
106.8,6.864512
106.85,7.229921
106.9,7.451906
106.95,6.564723
107,5.968215
107.05,5.209912
107.1,4.753863
107.15,4.740737
107.2,4.889834
107.25,4.531374
107.3,4.281931
107.35,3.980833
107.4,4.624093
107.45,5.328919
107.5,6.084369
107.55,6.31647
107.6,5.96646
107.65,5.343825
107.7,4.453167
107.75,3.756352
107.8,3.259971
107.85,3.192539
107.9,4.354105
107.95,5.550466
108,6.527351
108.05,7.494853
108.1,7.645397
108.15,7.201465
108.2,6.403301
108.25,5.692173
108.3,5.532321
108.35,5.132457
108.4,5.462966
108.45,6.16171
108.5,6.623234
108.55,7.677537
108.6,8.430101
108.65,9.632616
108.7,12.98406
108.75,18.60398
108.8,24.61451
108.85,33.42383
108.9,44.96225
108.95,59.79919
109,78.90265
109.05,102.6835
109.1,129.839
109.15,158.8686
109.2,190.8638
109.25,224.6411
109.3,253.8353
109.35,282.4461
109.4,314.1004
109.45,344.2887
109.5,369.7976
109.55,390.8345
109.6,408.0608
109.65,415.0684
109.7,417.3101
109.75,419.8337
109.8,411.8758
109.85,401.4947
109.9,378.5506
109.95,345.996
110,311.622
110.05,274.4934
110.1,246.3963
110.15,220.3346
110.2,197.9409
110.25,175.7153
110.3,150.5001
110.35,131.5163
110.4,116.7326
110.45,103.174
110.5,91.49198
110.55,79.37625
110.6,67.4189
110.65,56.11935
110.7,48.69482
110.75,42.46848
110.8,36.74047
110.85,32.49954
110.9,29.52052
110.95,26.32025
111,22.73823
111.05,19.56007
111.1,15.51276
111.15,12.17228
111.2,10.84559
111.25,11.78143
111.3,11.79894
111.35,10.97745
111.4,9.380332
111.45,6.425012
111.5,4.265209
111.55,3.348351
111.6,3.337601
111.65,2.990652
111.7,3.256892
111.75,4.540516
111.8,5.434065
111.85,5.050041
111.9,4.073433
111.95,3.153818
112,3.595185
112.05,5.550561
112.1,8.947071
112.15,12.5203
112.2,15.89378
112.25,19.73543
112.3,24.68898
112.35,31.95431
112.4,39.39104
112.45,47.09586
112.5,57.99993
112.55,69.66726
112.6,82.13876
112.65,94.42165
112.7,105.257
112.75,113.3204
112.8,120.1985
112.85,126.8749
112.9,134.8684
112.95,139.7835
113,144.4601
113.05,144.1514
113.1,140.4194
113.15,132.2527
113.2,126.4525
113.25,118.6469
113.3,112.8276
113.35,107.6632
113.4,102.5793
113.45,96.72858
113.5,89.88095
113.55,80.30271
113.6,71.05836
113.65,61.66703
113.7,53.52863
113.75,44.88388
113.8,38.4492
113.85,35.1666
113.9,29.80125
113.95,25.098
114,21.61983
114.05,17.74537
114.1,15.13925
114.15,13.75146
114.2,12.85437
114.25,9.030801
114.3,5.661164
114.35,5.31686
114.4,6.361032
114.45,9.171968
114.5,11.05979
114.55,9.347811
114.6,6.151562
114.65,4.287624
114.7,4.131504
114.75,4.841372
114.8,5.874567
114.85,6.044002
114.9,5.47018
114.95,3.731442
115,2.562076
115.05,1.95888
115.1,1.357252
115.15,1.059389
115.2,1.747145
115.25,2.903594
115.3,2.786893
115.35,2.067599
115.4,1.390345
115.45,0.5589404
115.5,-0.3961779
115.55,-0.7785097
115.6,-0.1616611
115.65,0.4272158
115.7,0.9057193
115.75,0.5452738
115.8,-0.4518777
115.85,-1.250143
115.9,-2.241673
115.95,-2.54568
116,-2.571712
116.05,-1.549611
116.1,-0.7317195
116.15,-0.1219401
116.2,-0.2077574
116.25,-1.020568
116.3,-2.715219
116.35,-4.133907
116.4,-4.94975
116.45,-5.127279
116.5,-5.156474
116.55,-4.885788
116.6,-4.567511
116.65,-4.535692
116.7,-4.877488
116.75,-5.46432
116.8,-6.007978
116.85,-5.966061
116.9,-4.884628
116.95,-3.801117
117,-3.326507
117.05,-3.114356
117.1,-3.54058
117.15,-3.90216
117.2,-4.00554
117.25,-4.206018
117.3,-4.574038
117.35,-5.475355
117.4,-5.965353
117.45,-6.22921
117.5,-6.495272
117.55,-5.643467
117.6,-5.360989
117.65,-5.212119
117.7,-4.836937
117.75,-4.983475
117.8,-4.946295
117.85,-4.708591
117.9,-4.572545
117.95,-4.546682
118,-4.932021
118.05,-4.932633
118.1,-5.089805
118.15,-5.212326
118.2,-5.073647
118.25,-5.254858
118.3,-5.557066
118.35,-5.883039
118.4,-6.109674
118.45,-6.158198
118.5,-5.620745
118.55,-4.704782
118.6,-4.121016
118.65,-4.077379
118.7,-4.316301
118.75,-4.993996
118.8,-5.60329
118.85,-5.753556
118.9,-5.464799
118.95,-5.343724
119,-5.456698
119.05,-5.62993
119.1,-5.826897
119.15,-6.093836
119.2,-6.000312
119.25,-5.741274
119.3,-5.504335
119.35,-5.474777
119.4,-5.556655
119.45,-5.496159
119.5,-5.393213
119.55,-5.333985
119.6,-5.287518
119.65,-5.497749
119.7,-5.746752
119.75,-5.91803
119.8,-5.895221
119.85,-5.452123
119.9,-5.040258
119.95,-5.051927
120,-5.286501
120.05,-5.596313
120.1,-5.914674
120.15,-6.048092
120.2,-6.016224
120.25,-5.974654
120.3,-6.229888
120.35,-6.50754
120.4,-6.522154
120.45,-6.438451
120.5,-5.973773
120.55,-5.662262
120.6,-5.753001
120.65,-5.668638
120.7,-5.735389
120.75,-5.809028
120.8,-5.809799
120.85,-5.702441
120.9,-5.509343
120.95,-5.180568
121,-4.980175
121.05,-5.082502
121.1,-5.478943
121.15,-5.8811
121.2,-6.131353
121.25,-6.165846
121.3,-6.064172
121.35,-5.99782
121.4,-5.819853
121.45,-5.608082
121.5,-5.500304
121.55,-5.541875
121.6,-5.77555
121.65,-6.125794
121.7,-6.393273
121.75,-6.439456
121.8,-6.373385
121.85,-6.246102
121.9,-6.134789
121.95,-6.135918
122,-6.127531
122.05,-6.240045
122.1,-6.124164
122.15,-5.98182
122.2,-5.774399
122.25,-5.689055
122.3,-5.944898
122.35,-6.167887
122.4,-6.28789
122.45,-6.368484
122.5,-6.360056
122.55,-6.339874
122.6,-6.335711
122.65,-6.308975
122.7,-6.212799
122.75,-6.176126
122.8,-6.108907
122.85,-6.146895
122.9,-6.273954
122.95,-6.418574
123,-6.45732
123.05,-6.452279
123.1,-6.436361
123.15,-6.277017
123.2,-5.975498
123.25,-6.078421
123.3,-6.077361
123.35,-6.138384
123.4,-6.232363
123.45,-6.159999
123.5,-6.217264
123.55,-5.825255
123.6,-5.556559
123.65,-5.439327
123.7,-5.351266
123.75,-5.499386
123.8,-5.535645
123.85,-5.604455
123.9,-5.657326
123.95,-5.626106
124,-5.739386
124.05,-5.862757
124.1,-6.058954
124.15,-6.109298
124.2,-6.039989
124.25,-6.015363
124.3,-6.041833
124.35,-5.983513
124.4,-5.855983
124.45,-5.832861
124.5,-5.730069
124.55,-5.616212
124.6,-5.722109
124.65,-5.91101
124.7,-6.077265
124.75,-6.167804
124.8,-6.345874
124.85,-6.377995
124.9,-6.260121
124.95,-6.222407
125,-6.247787
125.05,-6.200421
125.1,-6.082965
125.15,-6.134062
125.2,-6.176271
125.25,-6.162094
125.3,-6.155815
125.35,-6.191107
125.4,-6.158604
125.45,-5.971374
125.5,-5.803056
125.55,-5.818028
125.6,-5.915452
125.65,-6.034925
125.7,-6.099936
125.75,-6.14037
125.8,-6.146924
125.85,-6.166833
125.9,-6.271145
125.95,-6.243155
126,-6.092787
126.05,-5.932043
126.1,-5.932961
126.15,-5.976647
126.2,-5.933461
126.25,-5.878124
126.3,-5.860475
126.35,-5.697941
126.4,-5.687847
126.45,-5.611843
126.5,-5.634621
126.55,-5.684934
126.6,-5.821368
126.65,-6.054813
126.7,-6.010625
126.75,-5.656642
126.8,-5.38919
126.85,-5.338576
126.9,-5.534471
126.95,-5.914668
127,-6.300805
127.05,-6.447821
127.1,-6.3394
127.15,-6.253151
127.2,-6.222682
127.25,-6.155392
127.3,-6.177029
127.35,-6.229235
127.4,-6.157521
127.45,-6.058609
127.5,-6.088531
127.55,-6.188122
127.6,-6.229839
127.65,-6.257728
127.7,-6.168417
127.75,-6.049338
127.8,-5.955299
127.85,-5.946953
127.9,-5.925123
127.95,-5.971541
128,-5.989623
128.05,-6.068045
128.1,-6.151679
128.15,-6.1669
128.2,-6.096859
128.25,-6.010876
128.3,-5.761863
128.35,-5.69227
128.4,-5.698872
128.45,-5.607891
128.5,-5.429409
128.55,-5.442611
128.6,-5.552162
128.65,-5.643879
128.7,-5.79425
128.75,-5.983097
128.8,-6.078917
128.85,-6.094024
128.9,-6.161224
128.95,-6.155941
129,-6.077368
129.05,-5.925774
129.1,-5.826135
129.15,-5.807977
129.2,-5.841676
129.25,-5.854223
129.3,-5.997178
129.35,-6.059483
129.4,-6.231918
129.45,-6.283917
129.5,-6.33438
129.55,-6.201097
129.6,-6.095559
129.65,-6.049493
129.7,-6.08557
129.75,-6.190669
129.8,-6.366616
129.85,-6.437359
129.9,-6.366566
129.95,-6.192087
130,-6.129512
130.05,-6.164614
130.1,-6.194628
130.15,-6.231331
130.2,-6.222771
130.25,-6.227339
130.3,-6.238497
130.35,-6.207678
130.4,-6.169093
130.45,-6.066893
130.5,-6.098542
130.55,-6.22229
130.6,-6.304113
130.65,-6.363222
130.7,-6.341025
130.75,-6.164577
130.8,-6.045222
130.85,-6.061083
130.9,-6.142667
130.95,-6.218212
131,-5.977789
131.05,-5.887304
131.1,-5.864086
131.15,-5.834347
131.2,-5.838871
131.25,-5.869048
131.3,-5.951231
131.35,-6.016437
131.4,-6.117425
131.45,-6.27677
131.5,-6.335361
131.55,-6.331359
131.6,-6.292295
131.65,-6.27395
131.7,-6.354885
131.75,-6.424478
131.8,-6.468394
131.85,-6.522442
131.9,-6.508629
131.95,-6.433381
132,-6.435464
132.05,-6.478709
132.1,-6.545185
132.15,-6.482536
132.2,-6.546738
132.25,-6.36545
132.3,-6.176163
132.35,-6.229649
132.4,-6.307971
132.45,-6.553475
132.5,-6.783178
132.55,-6.805598
132.6,-6.850471
132.65,-6.692937
132.7,-6.560127
132.75,-6.492019
132.8,-6.583622
132.85,-6.682295
132.9,-6.673479
132.95,-6.672226
133,-6.557618
133.05,-6.271327
133.1,-6.066134
133.15,-6.159117
133.2,-6.175511
133.25,-5.944438
133.3,-5.75418
133.35,-5.711916
133.4,-5.774182
133.45,-5.928218
133.5,-6.0933
133.55,-6.2149
133.6,-6.118317
133.65,-6.227677
133.7,-6.361441
133.75,-6.606739
133.8,-6.623186
133.85,-6.538811
133.9,-6.419477
133.95,-6.430006
134,-6.513234
134.05,-6.548945
134.1,-6.537791
134.15,-6.584872
134.2,-6.575597
134.25,-6.57525
134.3,-6.645617
134.35,-6.72136
134.4,-6.764526
134.45,-6.824353
134.5,-6.807816
134.55,-6.735125
134.6,-6.705217
134.65,-6.793608
134.7,-6.910767
134.75,-6.941476
134.8,-6.870682
134.85,-6.638262
134.9,-6.485846
134.95,-6.538972
135,-6.565189
135.05,-6.557105
135.1,-6.569772
135.15,-6.601958
135.2,-6.632133
135.25,-6.677186
135.3,-6.838415
135.35,-6.793027
135.4,-6.817509
135.45,-6.844447
135.5,-6.906342
135.55,-6.906342
135.6,-6.906342
135.65,-6.906342
135.7,-6.906342
135.75,-6.906342
135.8,-6.906342
135.85,-6.906342
135.9,-6.906342
135.95,-6.906342
136,-6.906342
136.05,-6.906342
136.1,-6.906342
136.15,-6.906342
136.2,-6.906342
136.25,-6.906342
136.3,-6.906342
136.35,-6.906342
136.4,-6.906342
136.45,-6.906342
136.5,-6.906342
136.55,-6.906342
136.6,-6.906342
136.65,-6.906342
136.7,-6.906342
136.75,-6.906342
136.8,-6.906342
136.85,-6.906342
136.9,-6.906342
136.95,-6.906342
137,-6.906342
137.05,-6.906342
137.1,-6.906342
137.15,-6.906342
137.2,-6.906342
137.25,-6.906342
137.3,-6.906342
137.35,-6.906342
137.4,-6.906342
137.45,-6.906342
137.5,-6.906342
137.55,-6.906342
137.6,-6.906342
137.65,-6.906342
137.7,-6.906342
137.75,-6.906342
137.8,-6.906342
137.85,-6.906342
137.9,-6.906342
137.95,-6.906342
138,-6.906342
 
Alignment,On
