Data File Name,nextera4_jlc_High Sensitivity DNA Assay_DE24802700_2016-11-10_11-15-46.xad
Data File Path,C:\Users\jlchiniquy\Desktop\20171205_Nextera_library_size_to_loading_concentration_tool\JLChiniquy
Date Created,"Thursday, November 10, 2016 7:15:46 PM"
Date Last Modified,"Thursday, November 16, 2017 8:08:45 PM"
Version Created,B.02.07.SI532
Version Last Modified,B.02.08.SI648
 
Assay Name,High Sensitivity DNA
Assay Path,C:\Program Files\Agilent\2100 bioanalyzer\2100 expert\assays\dsDNA
Assay Title,High Sensitivity DNA Assay
Assay Version,1.0
 
Number of Samples Run,10
 
Sample Name,Ladder
Number of Events,2121
 
Time,Value
32,-2.184303E-02
32.05,6.543584E-02
32.1,0.0728814
32.15,2.848834E-02
32.2,-5.177209E-02
32.25,-0.1093072
32.3,-0.1041335
32.35,-4.082567E-02
32.4,-5.536699E-03
32.45,6.042944E-03
32.5,-1.167755E-02
32.55,-2.063989E-02
32.6,6.683976E-04
32.65,5.311723E-03
32.7,1.248446E-02
32.75,4.018536E-02
32.8,4.684088E-02
32.85,3.644909E-02
32.9,4.062775E-02
32.95,3.393638E-02
33,-1.409258E-02
33.05,-5.731116E-02
33.1,-7.989082E-02
33.15,-5.223982E-02
33.2,-9.865626E-02
33.25,-0.1003393
33.3,-0.1131125
33.35,-0.1138024
33.4,-0.1034109
33.45,-7.743598E-02
33.5,-5.943756E-02
33.55,-8.371275E-02
33.6,-0.1206459
33.65,-0.1367672
33.7,-0.1454098
33.75,-0.1266667
33.8,-7.011581E-02
33.85,-8.660621E-02
33.9,-0.1225199
33.95,-0.1537235
34,-0.1747078
34.05,-0.1427942
34.1,-0.1880409
34.15,-0.2333055
34.2,-0.227878
34.25,-0.2486763
34.3,-0.2132172
34.35,-0.1795267
34.4,-0.1804433
34.45,-0.2116902
34.5,-0.2543344
34.55,-0.2846105
34.6,-0.2826951
34.65,-0.2398131
34.7,-0.1755589
34.75,-0.1327956
34.8,-0.1510589
34.85,-0.1486735
34.9,-0.1354059
34.95,-0.1510684
35,-0.1428464
35.05,-0.1112288
35.1,-7.439083E-02
35.15,-0.0370488
35.2,-6.448761E-02
35.25,-7.102585E-02
35.3,-7.056398E-02
35.35,-9.135014E-02
35.4,-0.1159703
35.45,-0.1057059
35.5,-0.0457391
35.55,1.256568E-02
35.6,2.212209E-02
35.65,3.487449E-02
35.7,6.409458E-02
35.75,5.611202E-03
35.8,-3.108537E-02
35.85,-6.717992E-02
35.9,-6.162085E-02
35.95,-0.1023887
36,-0.1491699
36.05,-0.2618262
36.1,-0.3309811
36.15,-0.3392486
36.2,-0.3120327
36.25,-0.2176976
36.3,-9.655519E-02
36.35,3.552505E-03
36.4,2.816458E-02
36.45,-6.766623E-02
36.5,-0.1488042
36.55,-0.1961263
36.6,-0.2129137
36.65,-0.1431058
36.7,-0.1006697
36.75,-0.1672056
36.8,-0.181577
36.85,-0.252012
36.9,-0.233819
36.95,-0.2453383
37,-0.1861618
37.05,-0.1382394
37.1,-0.1696448
37.15,-0.1793196
37.2,-0.1281922
37.25,-9.799909E-02
37.3,-0.1288901
37.35,-0.196274
37.4,-0.2619406
37.45,-0.2751499
37.5,-0.308373
37.55,-0.2808614
37.6,-0.2343201
37.65,-0.179191
37.7,-0.1476981
37.75,-0.138726
37.8,-0.1674572
37.85,-0.1865529
37.9,-0.1765467
37.95,-0.176048
38,-0.1771066
38.05,-0.1627836
38.1,-0.1603866
38.15,-0.1708419
38.2,-0.157393
38.25,-0.1200622
38.3,-8.599868E-02
38.35,-8.715266E-02
38.4,-0.1216184
38.45,-0.1554571
38.5,-0.1728386
38.55,-0.1558216
38.6,-0.2139257
38.65,-0.2559394
38.7,-0.320692
38.75,-0.2972835
38.8,-0.2465732
38.85,-0.15481
38.9,-7.817544E-02
38.95,-5.454786E-02
39,-0.1060278
39.05,-0.2012603
39.1,-0.2767482
39.15,-0.3358468
39.2,-0.3671295
39.25,-0.347482
39.3,-0.305674
39.35,-0.3026274
39.4,-0.2620163
39.45,-0.2349706
39.5,-0.2609911
39.55,-0.2378462
39.6,-0.2871981
39.65,-0.3072404
39.7,-0.3291506
39.75,-0.3215419
39.8,-0.3234186
39.85,-0.3523405
39.9,-0.3791256
39.95,-0.356306
40,-0.3080562
40.05,-0.2989843
40.1,-0.2692096
40.15,-0.2549686
40.2,-0.2513839
40.25,-0.3141696
40.3,-0.2938656
40.35,-0.2985338
40.4,-0.2830235
40.45,-0.2998622
40.5,-0.2915897
40.55,-0.2529211
40.6,-0.1957407
40.65,-0.1677707
40.7,-0.1717752
40.75,-0.1938713
40.8,-0.2245734
40.85,-0.2584127
40.9,-0.2552645
40.95,-0.1997835
41,-0.1757107
41.05,-0.1366871
41.1,-0.1704556
41.15,-0.2467387
41.2,-0.2135823
41.25,-0.1544088
41.3,-5.202782E-02
41.35,-2.157886E-02
41.4,-8.571851E-02
41.45,-0.1315696
41.5,-0.2377405
41.55,-0.2645957
41.6,-0.212417
41.65,-0.1956492
41.7,-0.2440085
41.75,-0.3232573
41.8,-0.392627
41.85,-0.4117425
41.9,-0.394881
41.95,-0.3430617
42,-0.1783194
42.05,-0.1286314
42.1,-0.1792623
42.15,-0.2158495
42.2,-0.2029739
42.25,-0.2350267
42.3,-0.2160121
42.35,-0.2033776
42.4,-0.1416824
42.45,8.496362E-02
42.5,0.7599498
42.55,2.330919
42.6,5.169052
42.65,9.747896
42.7,16.60933
42.75,25.73535
42.8,36.47455
42.85,47.8195
42.9,57.83339
42.95,64.72259
43,66.86475
43.05,63.57859
43.1,56.03109
43.15,45.73871
43.2,34.61648
43.25,24.41901
43.3,16.09236
43.35,10.09476
43.4,6.227179
43.45,4.034478
43.5,2.980366
43.55,2.5339
43.6,2.367577
43.65,2.319567
43.7,2.26336
43.75,2.148139
43.8,2.015291
43.85,1.871162
43.9,1.684105
43.95,1.530272
44,1.357175
44.05,1.325209
44.1,1.233736
44.15,1.166204
44.2,1.131569
44.25,1.158429
44.3,1.220919
44.35,1.346586
44.4,1.540177
44.45,1.745178
44.5,1.92567
44.55,2.075006
44.6,2.221333
44.65,2.370999
44.7,2.603484
44.75,3.040923
44.8,4.11667
44.85,6.369264
44.9,10.73395
44.95,18.25845
45,29.5507
45.05,44.74044
45.1,62.98152
45.15,82.28337
45.2,99.49837
45.25,111.4223
45.3,115.6079
45.35,110.9467
45.4,98.1772
45.45,79.89194
45.5,59.82108
45.55,41.27501
45.6,26.38497
45.65,15.92167
45.7,9.692572
45.75,6.253002
45.8,4.417318
45.85,3.303535
45.9,2.676706
45.95,2.26157
46,1.924789
46.05,1.67087
46.1,1.526113
46.15,1.393526
46.2,1.262467
46.25,1.178295
46.3,1.115331
46.35,1.080288
46.4,1.015254
46.45,0.9271222
46.5,0.8379608
46.55,0.66056
46.6,0.463315
46.65,0.3381427
46.7,0.2056954
46.75,0.0776119
46.8,-4.340053E-02
46.85,-0.1570812
46.9,-0.2214886
46.95,-0.2684357
47,-0.2413491
47.05,-0.1719552
47.1,-0.1541631
47.15,-0.1877401
47.2,-0.2644014
47.25,-0.3947043
47.3,-0.4713638
47.35,-0.4780136
47.4,-0.445201
47.45,-0.4021906
47.5,-0.4244381
47.55,-0.4740146
47.6,-0.4590322
47.65,-0.4953286
47.7,-0.4988337
47.75,-0.4816138
47.8,-0.5230055
47.85,-0.6255957
47.9,-0.749477
47.95,-0.8444369
48,-0.8665248
48.05,-0.854042
48.1,-0.8694801
48.15,-0.8648554
48.2,-0.8329231
48.25,-0.8798271
48.3,-0.9050093
48.35,-0.8962013
48.4,-0.9472131
48.45,-0.9214816
48.5,-0.9419272
48.55,-0.8644338
48.6,-0.8002557
48.65,-0.7788302
48.7,-0.7641972
48.75,-0.7356068
48.8,-0.7615139
48.85,-0.8038874
48.9,-0.8225554
48.95,-0.8358031
49,-0.8444434
49.05,-0.8821287
49.1,-0.9212826
49.15,-0.9502554
49.2,-0.9966505
49.25,-1.05063
49.3,-0.9724528
49.35,-0.8736364
49.4,-0.8729929
49.45,-0.8680466
49.5,-0.8594789
49.55,-0.8750627
49.6,-0.9031293
49.65,-0.9174407
49.7,-0.9148737
49.75,-0.9459567
49.8,-1.030327
49.85,-1.096499
49.9,-1.124696
49.95,-1.176182
50,-1.186154
50.05,-1.192594
50.1,-1.094537
50.15,-0.7511313
50.2,5.492227E-02
50.25,2.179121
50.3,7.02372
50.35,16.27809
50.4,30.80357
50.45,50.41444
50.5,73.42225
50.55,96.47045
50.6,115.3371
50.65,125.9416
50.7,125.6753
50.75,114.6463
50.8,95.59401
50.85,72.72356
50.9,50.62089
50.95,32.58273
51,20.06629
51.05,12.51178
51.1,8.180532
51.15,5.919937
51.2,4.700008
51.25,3.751406
51.3,3.080024
51.35,2.454726
51.4,1.973686
51.45,1.56707
51.5,1.209028
51.55,1.012757
51.6,0.9760142
51.65,0.9658953
51.7,0.9335403
51.75,0.8939552
51.8,0.818212
51.85,0.8032893
51.9,0.7111909
51.95,0.6674753
52,0.646078
52.05,0.5981899
52.1,0.4913133
52.15,0.3845516
52.2,0.2528256
52.25,9.433958E-02
52.3,-6.253784E-02
52.35,-0.2005865
52.4,-0.3208154
52.45,-0.4175847
52.5,-0.4871595
52.55,-0.5580807
52.6,-0.6081047
52.65,-0.5300118
52.7,-0.3572611
52.75,-0.1638911
52.8,7.601214E-02
52.85,0.2507665
52.9,0.4485454
52.95,0.5173339
53,0.5610155
53.05,0.5286506
53.1,0.3613915
53.15,0.1352502
53.2,-0.0550549
53.25,-0.229618
53.3,-0.3544347
53.35,-0.4795959
53.4,-0.6337677
53.45,-0.7894485
53.5,-0.9668472
53.55,-1.086759
53.6,-1.113738
53.65,-1.06616
53.7,-0.9725609
53.75,-0.7996513
53.8,-0.6372015
53.85,-0.4599938
53.9,-0.2304616
53.95,-5.165844E-02
54,7.237366E-02
54.05,9.714533E-02
54.1,-9.201745E-03
54.15,-0.1472492
54.2,-0.3222758
54.25,-0.5453628
54.3,-0.7240458
54.35,-0.8504857
54.4,-0.9938015
54.45,-1.110085
54.5,-1.204832
54.55,-1.189999
54.6,-1.214951
54.65,-1.278263
54.7,-1.286981
54.75,-1.171162
54.8,-0.7930669
54.85,0.305643
54.9,3.428571
54.95,10.32444
55,22.83581
55.05,41.92941
55.1,66.7757
55.15,95.26321
55.2,123.5011
55.25,146.3251
55.3,159.1475
55.35,158.9185
55.4,145.7148
55.45,122.1388
55.5,93.38021
55.55,65.2952
55.6,42.83501
55.65,27.16866
55.7,17.7197
55.75,12.25317
55.8,9.256091
55.85,7.268007
55.9,5.909855
55.95,4.901456
56,4.07591
56.05,3.419593
56.1,2.880183
56.15,2.392298
56.2,1.985152
56.25,1.725552
56.3,1.565576
56.35,1.457971
56.4,1.297139
56.45,1.157
56.5,0.8744594
56.55,0.632683
56.6,0.4681953
56.65,0.3154086
56.7,0.2365162
56.75,0.2208879
56.8,0.2016471
56.85,0.157568
56.9,4.336683E-02
56.95,-0.1181841
57,-0.2628174
57.05,-0.3686749
57.1,-0.419165
57.15,-0.4369498
57.2,-0.4943401
57.25,-0.6127841
57.3,-0.7429044
57.35,-0.8786454
57.4,-0.8713111
57.45,-0.7967333
57.5,-0.709868
57.55,-0.6622891
57.6,-0.6679908
57.65,-0.7518014
57.7,-0.8746298
57.75,-0.9805549
57.8,-1.055178
57.85,-1.150682
57.9,-1.270962
57.95,-1.360189
58,-1.432532
58.05,-1.517429
58.1,-1.572926
58.15,-1.595097
58.2,-1.591518
58.25,-1.581756
58.3,-1.591785
58.35,-1.58615
58.4,-1.57641
58.45,-1.573782
58.5,-1.589541
58.55,-1.614673
58.6,-1.655807
58.65,-1.658308
58.7,-1.681609
58.75,-1.721938
58.8,-1.719944
58.85,-1.710143
58.9,-1.71688
58.95,-1.705803
59,-1.637819
59.05,-1.656465
59.1,-1.733512
59.15,-1.785453
59.2,-1.740194
59.25,-1.718208
59.3,-1.691697
59.35,-1.458447
59.4,-0.5681887
59.45,1.978942
59.5,7.595604
59.55,18.07797
59.6,34.80423
59.65,57.77103
59.7,85.31211
59.75,114.0427
59.8,139.2849
59.85,156.5249
59.9,162.5136
59.95,155.9961
60,138.5963
60.05,114.009
60.1,87.4423
60.15,63.27325
60.2,43.94736
60.25,30.35943
60.3,21.77176
60.35,16.52157
60.4,13.24912
60.45,11.074
60.5,9.634815
60.55,8.541693
60.6,7.54635
60.65,6.752374
60.7,6.088596
60.75,5.408632
60.8,4.698657
60.85,4.097151
60.9,3.595709
60.95,3.308811
61,2.853332
61.05,2.576242
61.1,2.328186
61.15,2.167806
61.2,2.057303
61.25,1.963861
61.3,1.850302
61.35,1.761253
61.4,1.649519
61.45,1.475756
61.5,1.283403
61.55,1.092429
61.6,0.8737022
61.65,0.6061646
61.7,0.3798985
61.75,0.144333
61.8,-2.488321E-02
61.85,-0.191769
61.9,-0.3264944
61.95,-0.4050814
62,-0.5566869
62.05,-0.6605521
62.1,-0.7843503
62.15,-0.8940825
62.2,-0.9727272
62.25,-1.017248
62.3,-1.052642
62.35,-1.117512
62.4,-1.228328
62.45,-1.361175
62.5,-1.446743
62.55,-1.444359
62.6,-1.442163
62.65,-1.453594
62.7,-1.475279
62.75,-1.586653
62.8,-1.696847
62.85,-1.787383
62.9,-1.805915
62.95,-1.760453
63,-1.789989
63.05,-1.815569
63.1,-1.830162
63.15,-1.860886
63.2,-1.875067
63.25,-1.886319
63.3,-1.889796
63.35,-1.868519
63.4,-1.907288
63.45,-1.959533
63.5,-1.945297
63.55,-1.900046
63.6,-1.825018
63.65,-1.728917
63.7,-1.630678
63.75,-1.63053
63.8,-1.724404
63.85,-1.804155
63.9,-1.848488
63.95,-1.875526
64,-1.861031
64.05,-1.808812
64.1,-1.74345
64.15,-1.715779
64.2,-1.716346
64.25,-1.687784
64.3,-1.662125
64.35,-1.660224
64.4,-1.668851
64.45,-1.63195
64.5,-1.636631
64.55,-1.741089
64.6,-1.832756
64.65,-1.85934
64.7,-1.910591
64.75,-1.896087
64.8,-1.850988
64.85,-1.867571
64.9,-1.917274
64.95,-1.987695
65,-2.080182
65.05,-2.117822
65.1,-2.110485
65.15,-2.145647
65.2,-2.161351
65.25,-2.155741
65.3,-2.187842
65.35,-2.157803
65.4,-2.224477
65.45,-2.199047
65.5,-2.147773
65.55,-2.208366
65.6,-2.256897
65.65,-2.256673
65.7,-2.317368
65.75,-2.337608
65.8,-2.351195
65.85,-2.332912
65.9,-2.356184
65.95,-2.456527
66,-2.541046
66.05,-2.577069
66.1,-2.580527
66.15,-2.55702
66.2,-2.472495
66.25,-2.451105
66.3,-2.490039
66.35,-2.504462
66.4,-2.527023
66.45,-2.560962
66.5,-2.558012
66.55,-2.542445
66.6,-2.543815
66.65,-2.516931
66.7,-2.525327
66.75,-2.524085
66.8,-2.551821
66.85,-2.580865
66.9,-2.542591
66.95,-2.517013
67,-2.519057
67.05,-2.530215
67.1,-2.52248
67.15,-2.613068
67.2,-2.582679
67.25,-2.565231
67.3,-2.516391
67.35,-2.556948
67.4,-2.602466
67.45,-2.661342
67.5,-2.669977
67.55,-2.665357
67.6,-2.594408
67.65,-2.511122
67.7,-2.479042
67.75,-2.489059
67.8,-2.546343
67.85,-2.638023
67.9,-2.688642
67.95,-2.694563
68,-2.676099
68.05,-2.58854
68.1,-2.452917
68.15,-2.484734
68.2,-2.457641
68.25,-2.361884
68.3,-1.849352
68.35,3.300698E-02
68.4,4.181002
68.45,11.99522
68.5,25.28599
68.55,44.51336
68.6,69.61518
68.65,98.8808
68.7,128.6554
68.75,155.1339
68.8,174.9973
68.85,186.4298
68.9,187.724
68.95,178.6532
69,160.2691
69.05,135.7759
69.1,108.2483
69.15,82.26744
69.2,60.43024
69.25,44.48701
69.3,33.28566
69.35,25.73234
69.4,20.75701
69.45,17.31173
69.5,14.7695
69.55,12.7881
69.6,11.11293
69.65,9.775488
69.7,8.872682
69.75,8.070946
69.8,7.382316
69.85,6.743077
69.9,5.953407
69.95,5.304591
70,4.665754
70.05,4.188161
70.1,3.985593
70.15,3.806597
70.2,3.666327
70.25,3.537295
70.3,3.398892
70.35,3.273836
70.4,3.050995
70.45,2.783791
70.5,2.634776
70.55,2.50047
70.6,2.30829
70.65,2.15617
70.7,2.009507
70.75,1.790442
70.8,1.473737
70.85,1.249103
70.9,1.065202
70.95,0.8662143
71,0.5650543
71.05,0.2418624
71.1,-1.659513E-02
71.15,-0.3043114
71.2,-0.6041913
71.25,-0.8508854
71.3,-1.064229
71.35,-1.21227
71.4,-1.329434
71.45,-1.487473
71.5,-1.52084
71.55,-1.547444
71.6,-1.617
71.65,-1.68033
71.7,-1.751266
71.75,-1.778584
71.8,-1.907784
71.85,-2.040515
71.9,-2.108194
71.95,-2.125476
72,-2.125252
72.05,-2.085993
72.1,-2.136369
72.15,-2.245316
72.2,-2.364015
72.25,-2.459975
72.3,-2.500262
72.35,-2.519422
72.4,-2.480218
72.45,-2.404641
72.5,-2.344167
72.55,-2.399493
72.6,-2.415473
72.65,-2.353639
72.7,-2.297365
72.75,-2.347404
72.8,-2.449769
72.85,-2.57899
72.9,-2.69431
72.95,-2.802526
73,-2.822789
73.05,-2.746378
73.1,-2.664248
73.15,-2.612943
73.2,-2.588522
73.25,-2.626423
73.3,-2.716325
73.35,-2.820274
73.4,-2.940239
73.45,-2.958659
73.5,-2.941103
73.55,-2.78974
73.6,-2.66441
73.65,-2.6968
73.7,-2.752712
73.75,-2.839567
73.8,-2.839965
73.85,-2.801668
73.9,-2.746425
73.95,-2.683943
74,-2.714866
74.05,-2.848125
74.1,-2.990397
74.15,-3.088863
74.2,-3.069562
74.25,-3.024636
74.3,-3.042665
74.35,-2.990268
74.4,-3.004398
74.45,-3.082204
74.5,-3.164111
74.55,-3.184105
74.6,-3.11347
74.65,-3.155273
74.7,-3.179772
74.75,-3.123392
74.8,-3.11229
74.85,-3.167456
74.9,-3.191552
74.95,-3.150171
75,-3.085164
75.05,-3.082324
75.1,-3.186129
75.15,-3.202825
75.2,-3.266558
75.25,-3.299068
75.3,-3.316959
75.35,-3.238969
75.4,-3.233133
75.45,-3.146983
75.5,-3.182577
75.55,-3.129322
75.6,-3.10422
75.65,-3.09664
75.7,-3.109356
75.75,-3.089446
75.8,-3.037731
75.85,-3.00253
75.9,-2.993711
75.95,-2.993307
76,-2.964432
76.05,-3.039928
76.1,-3.139727
76.15,-3.223015
76.2,-3.254956
76.25,-3.282015
76.3,-3.200991
76.35,-2.905372
76.4,-2.387323
76.45,-1.225148
76.5,1.641069
76.55,6.805012
76.6,15.43113
76.65,28.45351
76.7,46.08152
76.75,68.05145
76.8,93.68576
76.85,121.3299
76.9,148.3006
76.95,172.412
77,190.0099
77.05,199.9574
77.1,200.3321
77.15,191.5102
77.2,175.1572
77.25,153.0009
77.3,127.9658
77.35,103.6316
77.4,81.89721
77.45,64.04565
77.5,50.22052
77.55,39.97907
77.6,32.48559
77.65,26.75951
77.7,22.43548
77.75,19.43201
77.8,17.0499
77.85,14.9184
77.9,12.96279
77.95,11.70275
78,10.66122
78.05,9.743849
78.1,8.796823
78.15,7.967256
78.2,7.037299
78.25,6.25752
78.3,5.880601
78.35,5.66805
78.4,5.548225
78.45,5.345427
78.5,4.88923
78.55,4.394108
78.6,4.040925
78.65,3.745798
78.7,3.644398
78.75,3.575482
78.8,3.484218
78.85,3.4134
78.9,3.256056
78.95,3.147985
79,2.914387
79.05,2.517837
79.1,2.072571
79.15,1.54739
79.2,1.086032
79.25,0.6606767
79.3,0.3973683
79.35,0.1614725
79.4,-0.1399747
79.45,-0.3384938
79.5,-0.4601991
79.55,-0.6364342
79.6,-0.7659242
79.65,-1.03148
79.7,-1.215784
79.75,-1.310218
79.8,-1.603161
79.85,-1.716087
79.9,-1.764285
79.95,-1.899401
80,-1.998804
80.05,-2.176056
80.1,-2.266737
80.15,-2.357172
80.2,-2.489018
80.25,-2.591182
80.3,-2.624181
80.35,-2.628661
80.4,-2.641153
80.45,-2.669343
80.5,-2.759571
80.55,-2.823271
80.6,-2.873147
80.65,-2.993296
80.7,-3.018492
80.75,-2.927913
80.8,-2.90489
80.85,-2.840767
80.9,-2.851587
80.95,-2.877551
81,-2.926528
81.05,-3.041238
81.1,-3.09357
81.15,-3.080977
81.2,-3.060308
81.25,-3.055206
81.3,-3.101426
81.35,-3.145415
81.4,-3.161118
81.45,-3.225467
81.5,-3.23658
81.55,-3.181948
81.6,-3.157642
81.65,-3.133175
81.7,-3.089147
81.75,-3.018392
81.8,-2.984519
81.85,-2.925256
81.9,-2.807122
81.95,-2.730476
82,-2.623993
82.05,-2.410504
82.1,-2.000605
82.15,-1.146354
82.2,0.6467527
82.25,4.213372
82.3,10.53189
82.35,20.25747
82.4,33.2732
82.45,50.17863
82.5,70.79895
82.55,93.58083
82.6,116.3779
82.65,137.7007
82.7,157.247
82.75,172.464
82.8,181.4728
82.85,184.8426
82.9,181.0351
82.95,170.382
83,154.8595
83.05,136.3112
83.1,117.2417
83.15,99.19144
83.2,82.57876
83.25,68.70048
83.3,57.59263
83.35,48.23646
83.4,42.0034
83.45,36.66132
83.5,33.177
83.55,30.65778
83.6,28.47094
83.65,26.45258
83.7,24.55917
83.75,22.68175
83.8,20.81056
83.85,19.27152
83.9,18.19055
83.95,17.30741
84,16.43328
84.05,15.59654
84.1,14.89171
84.15,14.13277
84.2,13.20404
84.25,11.95911
84.3,10.97006
84.35,9.837885
84.4,8.959427
84.45,8.300204
84.5,7.789455
84.55,7.217991
84.6,6.743088
84.65,6.226959
84.7,5.741324
84.75,5.190187
84.8,4.494437
84.85,3.854506
84.9,3.336884
84.95,2.865937
85,2.473053
85.05,2.055943
85.1,1.433968
85.15,0.7808622
85.2,0.3618768
85.25,0.1580082
85.3,3.490175E-02
85.35,-0.1442968
85.4,-0.3972076
85.45,-0.6205115
85.5,-0.8416216
85.55,-1.071451
85.6,-1.223821
85.65,-1.320438
85.7,-1.486881
85.75,-1.703744
85.8,-1.852298
85.85,-1.943521
85.9,-2.005517
85.95,-2.10455
86,-2.156308
86.05,-2.099664
86.1,-2.049237
86.15,-2.143517
86.2,-2.193603
86.25,-2.1875
86.3,-2.206517
86.35,-2.248488
86.4,-2.19909
86.45,-2.141217
86.5,-2.053656
86.55,-1.627372
86.6,-0.4847126
86.65,1.960956
86.7,6.471353
86.75,13.62768
86.8,24.23704
86.85,38.80965
86.9,57.519
86.95,79.14072
87,102.9915
87.05,128.6802
87.1,153.6262
87.15,176.2081
87.2,194.6782
87.25,208.5595
87.3,216.1591
87.35,216.9798
87.4,211.2614
87.45,199.9647
87.5,184.1608
87.55,165.1087
87.6,144.776
87.65,124.8547
87.7,106.6965
87.75,90.66305
87.8,77.42242
87.85,65.57317
87.9,56.96476
87.95,50.07998
88,44.61171
88.05,40.80906
88.1,37.61748
88.15,35.14668
88.2,33.08357
88.25,31.13491
88.3,29.56117
88.35,28.07092
88.4,26.26804
88.45,24.42558
88.5,22.66619
88.55,20.804
88.6,19.09709
88.65,17.39569
88.7,15.87075
88.75,14.65956
88.8,13.31357
88.85,12.30787
88.9,11.31826
88.95,10.10746
89,8.717723
89.05,7.556758
89.1,6.583688
89.15,5.753611
89.2,5.019273
89.25,4.431455
89.3,3.864667
89.35,3.244774
89.4,2.747854
89.45,2.279799
89.5,1.949352
89.55,1.534148
89.6,1.600685
89.65,2.153164
89.7,2.967753
89.75,4.623391
89.8,7.94569
89.85,12.9151
89.9,21.23179
89.95,32.61329
90,47.14961
90.05,65.06531
90.1,85.30791
90.15,107.2541
90.2,130.2711
90.25,152.8953
90.3,173.524
90.35,190.1005
90.4,201.3126
90.45,206.8969
90.5,207.1019
90.55,200.7081
90.6,189.6105
90.65,176.1526
90.7,160.3393
90.75,143.2781
90.8,126.3274
90.85,110.1828
90.9,96.03824
90.95,84.13625
91,74.49063
91.05,67.06897
91.1,60.99214
91.15,55.63748
91.2,51.10659
91.25,46.92134
91.3,43.67743
91.35,40.58941
91.4,37.50619
91.45,34.50086
91.5,32.21727
91.55,30.30266
91.6,28.57802
91.65,26.26159
91.7,23.97157
91.75,22.02552
91.8,20.33808
91.85,18.61343
91.9,16.81365
91.95,15.00832
92,13.35652
92.05,11.89497
92.1,10.5111
92.15,9.55011
92.2,8.98515
92.25,8.151726
92.3,7.479429
92.35,6.766733
92.4,5.909009
92.45,5.13708
92.5,4.341242
92.55,3.666168
92.6,3.265421
92.65,2.743567
92.7,2.17482
92.75,1.737678
92.8,1.449464
92.85,1.336325
92.9,1.319177
92.95,1.145304
93,0.7521097
93.05,0.3176854
93.1,-0.1129187
93.15,-0.275554
93.2,-0.2864465
93.25,-0.4244613
93.3,-0.5214556
93.35,-0.6231372
93.4,-0.5892407
93.45,-0.5315555
93.5,-0.5257939
93.55,-0.5701355
93.6,-0.62511
93.65,-0.5104955
93.7,3.365375E-03
93.75,0.9958878
93.8,2.593129
93.85,5.092873
93.9,8.762219
93.95,13.8769
94,21.19991
94.05,32.41514
94.1,46.01635
94.15,62.7394
94.2,81.14765
94.25,100.6655
94.3,119.6268
94.35,137.7823
94.4,154.4385
94.45,170.725
94.5,185.1991
94.55,196.6389
94.6,203.7524
94.65,206.454
94.7,205.185
94.75,199.5814
94.8,190.5124
94.85,179.8539
94.9,167.3332
94.95,153.4622
95,139.9305
95.05,128.81
95.1,119.3674
95.15,109.8911
95.2,100.4589
95.25,91.82665
95.3,83.13374
95.35,75.30797
95.4,68.18272
95.45,61.51918
95.5,55.22644
95.55,49.5412
95.6,44.61172
95.65,40.12561
95.7,35.86034
95.75,31.59809
95.8,27.15623
95.85,22.91145
95.9,19.57093
95.95,17.9206
96,16.85269
96.05,16.01439
96.1,15.00859
96.15,13.72871
96.2,11.99372
96.25,10.27591
96.3,8.957603
96.35,8.177181
96.4,7.536426
96.45,6.867915
96.5,6.106804
96.55,5.200717
96.6,4.489225
96.65,3.794297
96.7,3.162946
96.75,2.631417
96.8,2.184634
96.85,1.96264
96.9,1.930297
96.95,1.850322
97,1.771082
97.05,1.279247
97.1,0.66051
97.15,0.3435561
97.2,0.3403824
97.25,0.4424442
97.3,0.4051397
97.35,0.2084245
97.4,-7.367921E-02
97.45,-0.3319323
97.5,-0.3403782
97.55,-0.1939875
97.6,-6.926122E-02
97.65,-5.598223E-02
97.7,-0.1895563
97.75,-0.3794092
97.8,-0.472078
97.85,-0.5728378
97.9,-0.4980602
97.95,-0.4291128
98,-0.4654599
98.05,-0.5498514
98.1,-0.5658301
98.15,-0.6248605
98.2,-0.7183501
98.25,-0.8031815
98.3,-0.7745472
98.35,-0.5205262
98.4,-0.2690067
98.45,-0.190617
98.5,-0.2115712
98.55,-0.1825083
98.6,-0.4931418
98.65,-0.7488491
98.7,-1.06149
98.75,-1.027663
98.8,-0.9372509
98.85,-0.9096277
98.9,-0.9069725
98.95,-0.8485856
99,-0.8313642
99.05,-0.9265032
99.1,-0.9827159
99.15,-0.8896146
99.2,-0.7099268
99.25,-0.5561429
99.3,-0.5167223
99.35,-0.4946164
99.4,-0.2925482
99.45,-0.1076355
99.5,-0.1978243
99.55,-0.3151513
99.6,-0.5624017
99.65,-0.7487503
99.7,-1.029093
99.75,-0.945613
99.8,-0.7242842
99.85,-0.4885974
99.9,-0.3701636
99.95,-0.4187007
100,-0.599063
100.05,-0.8693481
100.1,-1.129947
100.15,-1.155229
100.2,-0.8349895
100.25,-0.37125
100.3,0.2290638
100.35,0.7157419
100.4,1.390565
100.45,2.199274
100.5,4.76766
100.55,9.698062
100.6,17.0527
100.65,26.61925
100.7,39.11321
100.75,54.81991
100.8,74.79555
100.85,97.54359
100.9,122.0781
100.95,148.3398
101,175.727
101.05,201.8981
101.1,224.4632
101.15,245.4692
101.2,262.3644
101.25,277.1335
101.3,285.9619
101.35,283.2038
101.4,278.6474
101.45,270.4501
101.5,257.4054
101.55,242.9828
101.6,224.3875
101.65,204.2272
101.7,182.4975
101.75,160.652
101.8,142.6828
101.85,127.9831
101.9,113.6895
101.95,100.4249
102,88.28972
102.05,76.63159
102.1,66.61791
102.15,57.41473
102.2,49.12072
102.25,41.91291
102.3,36.92567
102.35,32.56674
102.4,29.4386
102.45,26.06999
102.5,22.67976
102.55,19.7364
102.6,17.47245
102.65,15.71381
102.7,14.30998
102.75,12.89094
102.8,11.32223
102.85,9.935491
102.9,8.669955
102.95,7.670455
103,6.912328
103.05,6.206404
103.1,5.117958
103.15,4.487415
103.2,3.484597
103.25,3.009137
103.3,2.840248
103.35,2.715352
103.4,2.575745
103.45,2.402477
103.5,2.198217
103.55,1.962869
103.6,1.762145
103.65,1.792554
103.7,1.976923
103.75,2.322694
103.8,3.34487
103.85,4.76927
103.9,6.804819
103.95,9.722044
104,16.02421
104.05,25.61419
104.1,37.33578
104.15,51.99855
104.2,70.16831
104.25,90.67081
104.3,113.2746
104.35,136.9413
104.4,164.7136
104.45,193.5532
104.5,220.5753
104.55,245.7368
104.6,269.0238
104.65,288.9247
104.7,300.8378
104.75,305.52
104.8,307.7155
104.85,302.7176
104.9,287.6421
104.95,269.1604
105,247.2517
105.05,229.6086
105.1,210.3229
105.15,192.0418
105.2,174.1536
105.25,154.1636
105.3,134.013
105.35,116.5142
105.4,101.5732
105.45,89.28413
105.5,78.85069
105.55,67.90979
105.6,57.52402
105.65,48.24529
105.7,41.46666
105.75,35.53963
105.8,30.19145
105.85,25.48681
105.9,21.73119
105.95,18.99599
106,16.5893
106.05,15.05008
106.1,13.92467
106.15,12.9566
106.2,11.75056
106.25,10.64559
106.3,9.463739
106.35,8.482182
106.4,8.081483
106.45,7.695198
106.5,7.707086
106.55,7.80297
106.6,7.4785
106.65,6.809741
106.7,6.142018
106.75,5.159472
106.8,4.817309
106.85,4.362174
106.9,4.567346
106.95,4.727572
107,4.847757
107.05,4.736569
107.1,4.140388
107.15,3.473931
107.2,3.319102
107.25,3.541432
107.3,4.000687
107.35,4.659965
107.4,4.781749
107.45,4.621986
107.5,3.851928
107.55,3.396578
107.6,2.831715
107.65,2.765573
107.7,2.419113
107.75,2.611322
107.8,2.694553
107.85,2.94337
107.9,3.220929
107.95,3.345249
108,2.982274
108.05,2.625286
108.1,2.387918
108.15,2.184513
108.2,2.376104
108.25,2.876903
108.3,3.321501
108.35,3.536929
108.4,2.814663
108.45,1.921909
108.5,1.536726
108.55,1.028555
108.6,0.7197151
108.65,0.7065226
108.7,1.211448
108.75,2.103305
108.8,3.048004
108.85,4.763683
108.9,7.388257
108.95,10.6924
109,14.56475
109.05,19.37213
109.1,25.16926
109.15,32.14984
109.2,41.78088
109.25,53.87874
109.3,71.1601
109.35,94.75324
109.4,118.783
109.45,139.4519
109.5,160.7762
109.55,180.4917
109.6,200.5067
109.65,222.1944
109.7,240.2028
109.75,253.5984
109.8,260.281
109.85,263.1814
109.9,264.9113
109.95,264.856
110,262.0012
110.05,253.8344
110.1,239.5169
110.15,222.7924
110.2,205.5753
110.25,190.5778
110.3,179.8516
110.35,167.7202
110.4,154.6508
110.45,138.0558
110.5,122.1979
110.55,106.7012
110.6,90.60701
110.65,77.56956
110.7,68.09961
110.75,60.74232
110.8,54.05996
110.85,47.69044
110.9,41.74416
110.95,35.5653
111,30.05883
111.05,26.82664
111.1,24.28005
111.15,22.45818
111.2,21.06149
111.25,20.4956
111.3,19.53541
111.35,17.45059
111.4,15.16988
111.45,11.66008
111.5,7.855257
111.55,5.890008
111.6,5.480375
111.65,5.724433
111.7,5.964414
111.75,5.830205
111.8,5.676791
111.85,5.872427
111.9,6.249236
111.95,6.894469
112,8.185616
112.05,9.953537
112.1,12.78334
112.15,17.16806
112.2,21.15802
112.25,23.74878
112.3,27.49776
112.35,31.20163
112.4,37.10501
112.45,47.36322
112.5,60.72136
112.55,74.15504
112.6,84.97228
112.65,93.05417
112.7,99.46701
112.75,102.8098
112.8,102.7752
112.85,104.4094
112.9,107.0982
112.95,107.6446
113,109.1846
113.05,110.3094
113.1,108.5769
113.15,101.1396
113.2,92.20045
113.25,87.01863
113.3,82.75993
113.35,78.47375
113.4,75.02496
113.45,69.3272
113.5,60.04794
113.55,50.07651
113.6,42.33922
113.65,37.71675
113.7,33.90699
113.75,30.09674
113.8,28.46782
113.85,25.80487
113.9,22.02828
113.95,19.57537
114,17.30243
114.05,15.01376
114.1,13.08524
114.15,11.86036
114.2,11.24375
114.25,10.404
114.3,10.09674
114.35,10.29988
114.4,10.23985
114.45,9.790387
114.5,8.969468
114.55,7.622965
114.6,6.135657
114.65,5.380898
114.7,4.819178
114.75,4.761183
114.8,4.642749
114.85,3.732874
114.9,3.027565
114.95,2.372817
115,2.859633
115.05,3.276535
115.1,3.190201
115.15,3.568614
115.2,3.760317
115.25,3.191674
115.3,2.329278
115.35,1.564492
115.4,1.329476
115.45,1.727742
115.5,1.821388
115.55,2.849523
115.6,3.463004
115.65,3.015196
115.7,1.882476
115.75,0.3133875
115.8,-0.4494194
115.85,-0.661308
115.9,-0.6851715
115.95,0.1942673
116,0.5699252
116.05,0.6912257
116.1,0.6188642
116.15,0.3324691
116.2,0.1336117
116.25,-0.1757433
116.3,-0.7060106
116.35,-1.076531
116.4,-1.750208
116.45,-2.175032
116.5,-2.230067
116.55,-2.627262
116.6,-2.527358
116.65,-2.3476
116.7,-2.542164
116.75,-2.700377
116.8,-3.002817
116.85,-2.885114
116.9,-2.920313
116.95,-2.673935
117,-2.151351
117.05,-2.005565
117.1,-2.230021
117.15,-2.454011
117.2,-2.757541
117.25,-3.150064
117.3,-3.452634
117.35,-3.714356
117.4,-3.601429
117.45,-3.531515
117.5,-3.470751
117.55,-3.427213
117.6,-3.629938
117.65,-3.672273
117.7,-3.51671
117.75,-3.248865
117.8,-3.038554
117.85,-2.902445
117.9,-2.954815
117.95,-3.25491
118,-3.592427
118.05,-3.807065
118.1,-3.991967
118.15,-4.142399
118.2,-4.110412
118.25,-3.974737
118.3,-3.842661
118.35,-3.908661
118.4,-4.109797
118.45,-3.958802
118.5,-3.981257
118.55,-4.035644
118.6,-4.018156
118.65,-4.014735
118.7,-4.113956
118.75,-4.268957
118.8,-4.464699
118.85,-4.497319
118.9,-4.415259
118.95,-4.40194
119,-4.34226
119.05,-4.253449
119.1,-4.26371
119.15,-4.367784
119.2,-4.532009
119.25,-4.62869
119.3,-4.578211
119.35,-4.64045
119.4,-4.627111
119.45,-4.538022
119.5,-4.541385
119.55,-4.38311
119.6,-4.245415
119.65,-4.251698
119.7,-4.354885
119.75,-4.464299
119.8,-4.502594
119.85,-4.5016
119.9,-4.513943
119.95,-4.445547
120,-4.345835
120.05,-4.427693
120.1,-4.515085
120.15,-4.632975
120.2,-4.676061
120.25,-4.706396
120.3,-4.77811
120.35,-4.745583
120.4,-4.712019
120.45,-4.525441
120.5,-4.383013
120.55,-4.337595
120.6,-4.313937
120.65,-4.332722
120.7,-4.458038
120.75,-4.606142
120.8,-4.669786
120.85,-4.665628
120.9,-4.531363
120.95,-4.485229
121,-4.456155
121.05,-4.462731
121.1,-4.523288
121.15,-4.669775
121.2,-4.557739
121.25,-4.459878
121.3,-4.345077
121.35,-4.220625
121.4,-4.146242
121.45,-4.201429
121.5,-4.354088
121.55,-4.517222
121.6,-4.623971
121.65,-4.673227
121.7,-4.643434
121.75,-4.471097
121.8,-4.356982
121.85,-4.438443
121.9,-4.586211
121.95,-4.689102
122,-4.784353
122.05,-4.764858
122.1,-4.650317
122.15,-4.63537
122.2,-4.643999
122.25,-4.693716
122.3,-4.721897
122.35,-4.699219
122.4,-4.70681
122.45,-4.708703
122.5,-4.621025
122.55,-4.516186
122.6,-4.442749
122.65,-4.341678
122.7,-4.347784
122.75,-4.394226
122.8,-4.514605
122.85,-4.612717
122.9,-4.652388
122.95,-4.72592
123,-4.82193
123.05,-4.745006
123.1,-4.478728
123.15,-4.273698
123.2,-4.216124
123.25,-4.169959
123.3,-4.147663
123.35,-4.142886
123.4,-4.118896
123.45,-4.108602
123.5,-4.090716
123.55,-4.077718
123.6,-4.204344
123.65,-4.313526
123.7,-4.384551
123.75,-4.517127
123.8,-4.618069
123.85,-4.708568
123.9,-4.717643
123.95,-4.659643
124,-4.565514
124.05,-4.507102
124.1,-4.559584
124.15,-4.642867
124.2,-4.711331
124.25,-4.780262
124.3,-4.837011
124.35,-4.808423
124.4,-4.667574
124.45,-4.547116
124.5,-4.536191
124.55,-4.593691
124.6,-4.660275
124.65,-4.792366
124.7,-4.692719
124.75,-4.320274
124.8,-3.96678
124.85,-3.843146
124.9,-3.919933
124.95,-4.160355
125,-4.478886
125.05,-4.705213
125.1,-4.767725
125.15,-4.714604
125.2,-4.639857
125.25,-4.594334
125.3,-4.550649
125.35,-4.507288
125.4,-4.509247
125.45,-4.530965
125.5,-4.508639
125.55,-4.541378
125.6,-4.541192
125.65,-4.483048
125.7,-4.498383
125.75,-4.498462
125.8,-4.557448
125.85,-4.592371
125.9,-4.585169
125.95,-4.529769
126,-4.47298
126.05,-4.415194
126.1,-4.388427
126.15,-4.418774
126.2,-4.448895
126.25,-4.505434
126.3,-4.50719
126.35,-4.500963
126.4,-4.498862
126.45,-4.536425
126.5,-4.585469
126.55,-4.65883
126.6,-4.686845
126.65,-4.666075
126.7,-4.606916
126.75,-4.572611
126.8,-4.548984
126.85,-4.563019
126.9,-4.605846
126.95,-4.627681
127,-4.671836
127.05,-4.695551
127.1,-4.591592
127.15,-4.526984
127.2,-4.416707
127.25,-4.221261
127.3,-4.162181
127.35,-4.209709
127.4,-4.388985
127.45,-4.561723
127.5,-4.634031
127.55,-4.714337
127.6,-4.671735
127.65,-4.626511
127.7,-4.547679
127.75,-4.486174
127.8,-4.480575
127.85,-4.478137
127.9,-4.475608
127.95,-4.514984
128,-4.57468
128.05,-4.621444
128.1,-4.614675
128.15,-4.558005
128.2,-4.51527
128.25,-4.492297
128.3,-4.532674
128.35,-4.680836
128.4,-4.797616
128.45,-4.80927
128.5,-4.73184
128.55,-4.623364
128.6,-4.520155
128.65,-4.471827
128.7,-4.471941
128.75,-4.440766
128.8,-4.327385
128.85,-4.202075
128.9,-4.158614
128.95,-4.172998
129,-4.240522
129.05,-4.33601
129.1,-4.417851
129.15,-4.472302
129.2,-4.44171
129.25,-4.457232
129.3,-4.299283
129.35,-4.126545
129.4,-4.118826
129.45,-4.174909
129.5,-4.286295
129.55,-4.419482
129.6,-4.543505
129.65,-4.61033
129.7,-4.594122
129.75,-4.573528
129.8,-4.624274
129.85,-4.704456
129.9,-4.754301
129.95,-4.734516
130,-4.704887
130.05,-4.672313
130.1,-4.619039
130.15,-4.56593
130.2,-4.527263
130.25,-4.599196
130.3,-4.674389
130.35,-4.702468
130.4,-4.71989
130.45,-4.719954
130.5,-4.71183
130.55,-4.706789
130.6,-4.656851
130.65,-4.556744
130.7,-4.491354
130.75,-4.458016
130.8,-4.412125
130.85,-4.436237
130.9,-4.488839
130.95,-4.482873
131,-4.554201
131.05,-4.582387
131.1,-4.627374
131.15,-4.649099
131.2,-4.605476
131.25,-4.598282
131.3,-4.558475
131.35,-4.50253
131.4,-4.461113
131.45,-4.382586
131.5,-4.287654
131.55,-4.25069
131.6,-4.256274
131.65,-4.314108
131.7,-4.416825
131.75,-4.514718
131.8,-4.600905
131.85,-4.567647
131.9,-4.507259
131.95,-4.442256
132,-4.36335
132.05,-4.356533
132.1,-4.406889
132.15,-4.469747
132.2,-4.532913
132.25,-4.569419
132.3,-4.605798
132.35,-4.617699
132.4,-4.624617
132.45,-4.673639
132.5,-4.686736
132.55,-4.706824
132.6,-4.712755
132.65,-4.711376
132.7,-4.676327
132.75,-4.640158
132.8,-4.595275
132.85,-4.627434
132.9,-4.564566
132.95,-4.575543
133,-4.5909
133.05,-4.628756
133.1,-4.634126
133.15,-4.568388
133.2,-4.488184
133.25,-4.411299
133.3,-4.325934
133.35,-4.302813
133.4,-4.382225
133.45,-4.472684
133.5,-4.533885
133.55,-4.536883
133.6,-4.572286
133.65,-4.616094
133.7,-4.610332
133.75,-4.693919
133.8,-4.780396
133.85,-4.772195
133.9,-4.721773
133.95,-4.644592
134,-4.556491
134.05,-4.457085
134.1,-4.381042
134.15,-4.345626
134.2,-4.326006
134.25,-4.321948
134.3,-4.363927
134.35,-4.447927
134.4,-4.485075
134.45,-4.48207
134.5,-4.455722
134.55,-4.428933
134.6,-4.356211
134.65,-4.330935
134.7,-4.369672
134.75,-4.450123
134.8,-4.47369
134.85,-4.50633
134.9,-4.548855
134.95,-4.554389
135,-4.542397
135.05,-4.576191
135.1,-4.615409
135.15,-4.596674
135.2,-4.57614
135.25,-4.563416
135.3,-4.627588
135.35,-4.608037
135.4,-4.587089
135.45,-4.5969
135.5,-4.565168
135.55,-4.537753
135.6,-4.583004
135.65,-4.597222
135.7,-4.593459
135.75,-4.550996
135.8,-4.551419
135.85,-4.591006
135.9,-4.622657
135.95,-4.65545
136,-4.668931
136.05,-4.627058
136.1,-4.574761
136.15,-4.519804
136.2,-4.49686
136.25,-4.514096
136.3,-4.503107
136.35,-4.609943
136.4,-4.52179
136.45,-4.444822
136.5,-4.331458
136.55,-4.264754
136.6,-4.320567
136.65,-4.357635
136.7,-4.464057
136.75,-4.647664
136.8,-4.719039
136.85,-4.737329
136.9,-4.759472
136.95,-4.696528
137,-4.725856
137.05,-4.751209
137.1,-4.739666
137.15,-4.837699
137.2,-4.796255
137.25,-4.695557
137.3,-4.689353
137.35,-4.608696
137.4,-4.678176
137.45,-4.718495
137.5,-4.739256
137.55,-4.829635
137.6,-4.875697
137.65,-4.857017
137.7,-4.841199
137.75,-4.846822
137.8,-4.848182
137.85,-4.82429
137.9,-4.792982
137.95,-4.78654
138,-4.778212
 
Alignment,On
