Data File Name,nk_03_06_2018_High Sensitivity DNA Assay_DE24802700_2018-03-06_15-11-01.xad
Data File Path,C:\Users\jlchiniquy\Desktop\JGI_Computer_BackUp\JBEI,SynBio\MiSeq\20171211_Nextera_library_size_to_loading_concentration
Date Created,"Tuesday, March 06, 2018 11:11:01 PM"
Date Last Modified,"Tuesday, March 06, 2018 11:52:20 PM"
Version Created,B.02.07.SI532
Version Last Modified,B.02.07.SI532
 
Assay Name,High Sensitivity DNA
Assay Path,C:\Program Files\Agilent\2100 bioanalyzer\2100 expert\assays\dsDNA
Assay Title,High Sensitivity DNA Assay
Assay Version,1.0
 
Number of Samples Run,11
 
Sample Name,Ladder
Number of Events,2121
 
Time,Value
32,3.094482E-02
32.05,3.094482E-02
32.1,3.094482E-02
32.15,3.094482E-02
32.2,3.094482E-02
32.25,3.094482E-02
32.3,3.094482E-02
32.35,3.094482E-02
32.4,3.094482E-02
32.45,3.094482E-02
32.5,3.094482E-02
32.55,3.094482E-02
32.6,3.094482E-02
32.65,3.094482E-02
32.7,3.094482E-02
32.75,3.094482E-02
32.8,3.094482E-02
32.85,3.094482E-02
32.9,3.094482E-02
32.95,3.094482E-02
33,3.094482E-02
33.05,3.094482E-02
33.1,3.094482E-02
33.15,3.094482E-02
33.2,3.094482E-02
33.25,5.954939E-02
33.3,0.2180044
33.35,0.3095441
33.4,0.3338653
33.45,0.3102328
33.5,0.2364477
33.55,7.372195E-02
33.6,-0.129991
33.65,-0.1986754
33.7,-0.2139422
33.75,-0.2234049
33.8,-0.1455444
33.85,-3.988782E-02
33.9,-0.0678834
33.95,-0.1851109
34,-0.1824596
34.05,-0.1241012
34.1,-5.488053E-02
34.15,4.407325E-02
34.2,0.1372035
34.25,0.2113953
34.3,0.159062
34.35,0.1174101
34.4,4.615752E-02
34.45,1.367874E-02
34.5,2.690805E-03
34.55,-1.9296E-04
34.6,5.077976E-03
34.65,-2.421403E-02
34.7,-2.82589E-03
34.75,7.909364E-02
34.8,0.1526787
34.85,8.161083E-02
34.9,-2.976097E-02
34.95,-0.1707003
35,-0.3111188
35.05,-0.2554794
35.1,-2.451067E-02
35.15,0.1119208
35.2,0.1353811
35.25,-0.0283582
35.3,-0.0852714
35.35,-0.1076472
35.4,-6.092944E-02
35.45,-3.284851E-03
35.5,7.576662E-02
35.55,7.108869E-02
35.6,-9.089319E-02
35.65,-0.2634563
35.7,-0.3517755
35.75,-0.3913767
35.8,-0.3997908
35.85,-0.3641548
35.9,-0.3303072
35.95,-0.4242395
36,-0.5941687
36.05,-0.7773704
36.1,-0.7149038
36.15,-0.5324754
36.2,-0.3602987
36.25,-0.2462785
36.3,-0.2487466
36.35,-0.495377
36.4,-0.6509264
36.45,-0.7249048
36.5,-0.6804802
36.55,-0.6139464
36.6,-0.4779301
36.65,-0.3888805
36.7,-0.3150142
36.75,-0.3890664
36.8,-0.5480218
36.85,-0.6632487
36.9,-0.6664426
36.95,-0.5358366
37,-0.3744757
37.05,-0.3158203
37.1,-0.2070169
37.15,-0.1661497
37.2,-0.2610747
37.25,-0.2916536
37.3,-0.3342718
37.35,-0.4302155
37.4,-0.5768465
37.45,-0.6054584
37.5,-0.4974907
37.55,-0.4304545
37.6,-0.3665507
37.65,-0.3032604
37.7,-0.3503911
37.75,-0.4796339
37.8,-0.5731974
37.85,-0.646469
37.9,-0.7060425
37.95,-0.7216036
38,-0.6830776
38.05,-0.578805
38.1,-0.5120279
38.15,-0.5255957
38.2,-0.5782816
38.25,-0.5747999
38.3,-0.5843245
38.35,-0.5986041
38.4,-0.5838652
38.45,-0.6878411
38.5,-0.8513657
38.55,-0.8671304
38.6,-0.8257897
38.65,-0.6991394
38.7,-0.7221341
38.75,-0.6579573
38.8,-0.7337673
38.85,-0.8879917
38.9,-0.8691326
38.95,-0.886076
39,-0.9955983
39.05,-0.9644204
39.1,-0.9745513
39.15,-1.000976
39.2,-1.024722
39.25,-0.9518834
39.3,-0.886004
39.35,-0.8100242
39.4,-0.7184409
39.45,-0.7207987
39.5,-0.7245544
39.55,-0.6983157
39.6,-0.6025918
39.65,-0.5684506
39.7,-0.5731561
39.75,-0.5575407
39.8,-0.6102608
39.85,-0.614462
39.9,-0.6024299
39.95,-0.6438856
40,-0.6433756
40.05,-0.5842189
40.1,-0.482062
40.15,-0.4510513
40.2,-0.4429189
40.25,-0.4842667
40.3,-0.5457557
40.35,-0.5987515
40.4,-0.6418356
40.45,-0.6732794
40.5,-0.6406926
40.55,-0.676963
40.6,-0.6893631
40.65,-0.6987804
40.7,-0.6570171
40.75,-0.7648
40.8,-0.92443
40.85,-0.9593655
40.9,-0.9425355
40.95,-0.9742173
41,-1.01108
41.05,-1.020988
41.1,-0.9311665
41.15,-0.8676062
41.2,-0.8814779
41.25,-0.9162647
41.3,-1.069141
41.35,-1.270892
41.4,-1.370081
41.45,-1.280421
41.5,-1.135625
41.55,-1.038738
41.6,-0.9960088
41.65,-0.9394577
41.7,-0.8858652
41.75,-0.9393519
41.8,-0.9906703
41.85,-0.9980941
41.9,-0.9921581
41.95,-0.9714909
42,-0.9486143
42.05,-0.9308915
42.1,-0.9467301
42.15,-0.9731199
42.2,-0.9826713
42.25,-0.9468215
42.3,-0.9028707
42.35,-0.8018284
42.4,-0.7027007
42.45,-0.3951442
42.5,0.4660245
42.55,2.459917
42.6,6.555835
42.65,13.71601
42.7,25.35309
42.75,41.72826
42.8,62.46942
42.85,84.72066
42.9,103.7403
42.95,115.4003
43,116.4428
43.05,106.3727
43.1,88.12116
43.15,65.713
43.2,44.27971
43.25,26.5343
43.3,13.91844
43.35,6.387409
43.4,2.5962
43.45,0.9506511
43.5,0.2570016
43.55,-0.126535
43.6,-0.3524464
43.65,-0.6180799
43.7,-0.9018093
43.75,-0.9672981
43.8,-0.929091
43.85,-0.9189844
43.9,-0.9166802
43.95,-0.8810321
44,-0.8020337
44.05,-0.7272491
44.1,-0.6996559
44.15,-0.7384584
44.2,-0.815685
44.25,-0.9053248
44.3,-0.9236875
44.35,-0.8287207
44.4,-0.7120504
44.45,-0.6965562
44.5,-0.8176201
44.55,-0.8858699
44.6,-0.8568463
44.65,-0.7908688
44.7,-0.6806279
44.75,-0.4197945
44.8,0.2430187
44.85,2.300438
44.9,7.212552
44.95,17.07789
45,33.91869
45.05,60.49702
45.1,96.06119
45.15,136.875
45.2,175.7155
45.25,203.2744
45.3,212.0014
45.35,198.9644
45.4,168.1519
45.45,128.0664
45.5,87.24939
45.55,53.57751
45.6,29.92792
45.65,15.63209
45.7,8.278041
45.75,5.01253
45.8,3.788368
45.85,3.199874
45.9,2.719835
45.95,2.272052
46,1.835283
46.05,1.519971
46.1,1.299403
46.15,1.114988
46.2,1.063845
46.25,1.047428
46.3,0.9833604
46.35,0.8822523
46.4,0.6571502
46.45,0.3731855
46.5,5.001436E-02
46.55,-0.2396129
46.6,-0.3894258
46.65,-0.5356631
46.7,-0.5842417
46.75,-0.6767077
46.8,-0.7658337
46.85,-0.7866088
46.9,-0.7010258
46.95,-0.6597334
47,-0.5030237
47.05,-0.4970769
47.1,-0.6976333
47.15,-0.8311582
47.2,-0.9300689
47.25,-0.847314
47.3,-0.7533668
47.35,-0.7162417
47.4,-0.7031726
47.45,-0.8579754
47.5,-0.910468
47.55,-0.8447921
47.6,-0.7036355
47.65,-0.6140816
47.7,-0.6043555
47.75,-0.5659366
47.8,-0.5234206
47.85,-0.4839754
47.9,-0.4598366
47.95,-0.4610904
48,-0.5093509
48.05,-0.5857572
48.1,-0.5566292
48.15,-0.5101845
48.2,-0.4385539
48.25,-0.3713055
48.3,-0.3213068
48.35,-0.3415131
48.4,-0.3937895
48.45,-0.3639227
48.5,-0.3617987
48.55,-0.3874625
48.6,-0.4083507
48.65,-0.5058416
48.7,-0.5486959
48.75,-0.6603667
48.8,-0.7191052
48.85,-0.7669522
48.9,-0.8210563
48.95,-0.8262916
49,-0.613107
49.05,-0.399843
49.1,-0.3195971
49.15,-0.3755774
49.2,-0.4855999
49.25,-0.6129565
49.3,-0.6093323
49.35,-0.5112288
49.4,-0.4035307
49.45,-0.4922739
49.5,-0.5443636
49.55,-0.5297263
49.6,-0.5559586
49.65,-0.518992
49.7,-0.3731104
49.75,-0.241294
49.8,-0.1244297
49.85,-0.0322501
49.9,-7.996367E-02
49.95,-0.1634195
50,-0.2327283
50.05,-0.1862702
50.1,-6.595352E-02
50.15,0.1130311
50.2,0.1970291
50.25,7.790381E-02
50.3,2.121401E-02
50.35,0.3240368
50.4,1.801394
50.45,6.467721
50.5,17.28986
50.55,37.77861
50.6,71.6352
50.65,118.5965
50.7,173.197
50.75,225.208
50.8,260.9903
50.85,269.6198
50.9,248.4889
50.95,203.6456
51,148.3295
51.05,95.7606
51.1,55.25394
51.15,29.82619
51.2,16.17893
51.25,10.23951
51.3,7.924554
51.35,6.609849
51.4,5.970057
51.45,5.372993
51.5,5.111539
51.55,5.232539
51.6,5.26626
51.65,5.27427
51.7,4.855014
51.75,4.431247
51.8,3.83455
51.85,3.228155
51.9,2.689482
51.95,2.213873
52,1.756287
52.05,1.235376
52.1,0.788694
52.15,0.5764227
52.2,0.4116029
52.25,0.3386822
52.3,0.3801844
52.35,0.4169251
52.4,0.3929383
52.45,0.4144317
52.5,0.4592082
52.55,0.5040265
52.6,0.5505539
52.65,0.6325785
52.7,0.6802092
52.75,0.6519042
52.8,0.6006852
52.85,0.5134065
52.9,0.4031174
52.95,0.3259305
53,0.3266514
53.05,0.4511083
53.1,0.4297802
53.15,0.5412956
53.2,0.7084718
53.25,0.8861571
53.3,0.9062794
53.35,0.7642046
53.4,0.7238607
53.45,0.6631895
53.5,0.4791523
53.55,0.3773619
53.6,0.3205799
53.65,0.2428003
53.7,0.175404
53.75,0.1035788
53.8,7.179475E-02
53.85,3.707277E-02
53.9,0.0668041
53.95,0.198477
54,0.3234842
54.05,0.3736588
54.1,0.3901927
54.15,0.4471281
54.2,0.485345
54.25,0.5140675
54.3,0.5480056
54.35,0.5824662
54.4,0.5662014
54.45,0.5008016
54.5,0.4860043
54.55,0.4784449
54.6,0.4934787
54.65,0.5577079
54.7,0.6480785
54.75,0.6919867
54.8,0.7132868
54.85,0.7224376
54.9,0.8672936
54.95,1.008761
55,1.179018
55.05,1.500719
55.1,2.688275
55.15,6.195178
55.2,15.76013
55.25,34.52644
55.3,68.23821
55.35,118.2196
55.4,180.7522
55.45,243.9378
55.5,293.5347
55.55,315.1457
55.6,302.5878
55.65,258.7556
55.7,197.654
55.75,134.5557
55.8,82.43378
55.85,46.83047
55.9,26.9044
55.95,17.30082
56,12.99466
56.05,10.76118
56.1,9.564102
56.15,8.801211
56.2,8.354771
56.25,8.096697
56.3,7.673071
56.35,6.973032
56.4,6.368855
56.45,6.028334
56.5,5.693506
56.55,5.454473
56.6,5.385654
56.65,5.106062
56.7,4.592977
56.75,4.160986
56.8,3.89726
56.85,3.630921
56.9,3.307538
56.95,3.113858
57,2.824393
57.05,2.485295
57.1,2.255722
57.15,2.149593
57.2,1.968666
57.25,1.948879
57.3,1.993759
57.35,2.083153
57.4,2.090276
57.45,2.100328
57.5,1.928617
57.55,1.782255
57.6,1.628741
57.65,1.661112
57.7,1.689993
57.75,1.741102
57.8,1.678119
57.85,1.640587
57.9,1.613508
57.95,1.694804
58,1.721143
58.05,1.726164
58.1,1.722401
58.15,1.693851
58.2,1.662431
58.25,1.648841
58.3,1.582645
58.35,1.539199
58.4,1.552104
58.45,1.537529
58.5,1.513738
58.55,1.558617
58.6,1.627504
58.65,1.620274
58.7,1.638114
58.75,1.644073
58.8,1.616788
58.85,1.502916
58.9,1.422837
58.95,1.365275
59,1.288201
59.05,1.162749
59.1,1.227246
59.15,1.334264
59.2,1.395474
59.25,1.435828
59.3,1.443208
59.35,1.381567
59.4,1.34913
59.45,1.426636
59.5,1.606133
59.55,1.592993
59.6,1.543435
59.65,1.569442
59.7,1.703177
59.75,2.567219
59.8,5.730218
59.85,14.22424
59.9,32.6504
59.95,65.76103
60,115.0791
60.05,177.3857
60.1,243.4606
60.15,299.6265
60.2,332.1958
60.25,332.3792
60.3,300.8206
60.35,246.3334
60.4,183.1306
60.45,124.961
60.5,80.39635
60.55,51.66406
60.6,35.78296
60.65,27.89954
60.7,23.74364
60.75,20.99881
60.8,18.95809
60.85,17.58655
60.9,16.78469
60.95,16.28813
61,15.4311
61.05,14.5466
61.1,13.67755
61.15,12.88336
61.2,12.04083
61.25,11.22667
61.3,10.07688
61.35,8.902186
61.4,7.72693
61.45,6.995821
61.5,6.276291
61.55,5.735637
61.6,5.316532
61.65,4.948053
61.7,4.523269
61.75,4.214065
61.8,3.78459
61.85,3.513784
61.9,3.294949
61.95,2.988732
62,2.707393
62.05,2.453221
62.1,2.409032
62.15,2.383004
62.2,2.292575
62.25,2.271701
62.3,2.223419
62.35,2.13437
62.4,2.087079
62.45,2.101042
62.5,2.181744
62.55,2.104367
62.6,2.000782
62.65,1.938958
62.7,1.823344
62.75,1.769251
62.8,1.733149
62.85,1.740554
62.9,1.652103
62.95,1.489991
63,1.416828
63.05,1.397562
63.1,1.427798
63.15,1.425141
63.2,1.410185
63.25,1.407328
63.3,1.309267
63.35,1.163017
63.4,0.9999264
63.45,0.944946
63.5,1.024298
63.55,1.01265
63.6,1.088205
63.65,1.24834
63.7,1.204008
63.75,1.035868
63.8,0.9982782
63.85,1.101745
63.9,1.100226
63.95,1.035609
64,1.013635
64.05,0.9746412
64.1,0.8764465
64.15,0.9463629
64.2,0.9779219
64.25,1.044822
64.3,1.077667
64.35,1.116104
64.4,1.139928
64.45,1.119252
64.5,1.087538
64.55,1.04215
64.6,1.036594
64.65,1.135534
64.7,1.239701
64.75,1.370063
64.8,1.400403
64.85,1.337533
64.9,1.219145
64.95,1.099003
65,1.123193
65.05,1.262069
65.1,1.352507
65.15,1.368382
65.2,1.291392
65.25,1.211131
65.3,1.223874
65.35,1.187714
65.4,1.234537
65.45,1.252092
65.5,1.244049
65.55,1.277693
65.6,1.345671
65.65,1.310226
65.7,1.252218
65.75,1.108809
65.8,1.120774
65.85,1.084096
65.9,1.136414
65.95,1.162868
66,1.172471
66.05,1.101863
66.1,0.9930342
66.15,0.9333386
66.2,0.8940982
66.25,0.8734048
66.3,0.8764201
66.35,0.8770304
66.4,0.9323577
66.45,0.9605971
66.5,0.9224249
66.55,0.901087
66.6,0.9331335
66.65,0.8492401
66.7,0.7424083
66.75,0.7509475
66.8,0.7692613
66.85,0.6895362
66.9,0.64392
66.95,0.6848439
67,0.6730212
67.05,0.5818757
67.1,0.5102335
67.15,0.4658302
67.2,0.4727608
67.25,0.6276964
67.3,0.894483
67.35,1.029067
67.4,1.189834
67.45,1.108461
67.5,0.9739055
67.55,0.794002
67.6,0.7099048
67.65,0.6451659
67.7,0.6427937
67.75,0.8105723
67.8,0.8581908
67.85,0.87251
67.9,0.9325881
67.95,0.8289665
68,0.7980521
68.05,0.792808
68.1,0.8142096
68.15,0.7773899
68.2,0.7381256
68.25,0.7807372
68.3,0.6818251
68.35,0.5949168
68.4,0.6127203
68.45,0.5774181
68.5,0.5052956
68.55,0.4142603
68.6,0.4109084
68.65,0.3991546
68.7,0.4589945
68.75,0.8162405
68.8,1.598442
68.85,3.539456
68.9,8.686547
68.95,20.82019
69,43.76113
69.05,80.62691
69.1,133.4613
69.15,199.5656
69.2,270.0866
69.25,332.0126
69.3,375.0893
69.35,389.5379
69.4,372.8443
69.45,329.8201
69.5,270.9421
69.55,206.7845
69.6,148.7543
69.65,102.9485
69.7,72.39593
69.75,52.628
69.8,41.27241
69.85,34.21593
69.9,29.40822
69.95,25.8938
70,23.77197
70.05,22.14478
70.1,21.21376
70.15,20.3824
70.2,19.56421
70.25,18.56087
70.3,17.5924
70.35,16.49168
70.4,15.36349
70.45,14.30445
70.5,13.22471
70.55,12.26456
70.6,11.15229
70.65,10.10032
70.7,9.059665
70.75,8.108471
70.8,7.363912
70.85,6.697693
70.9,6.219076
70.95,5.69333
71,5.200157
71.05,4.888551
71.1,4.680157
71.15,4.51477
71.2,4.229625
71.25,3.798275
71.3,3.511272
71.35,3.213927
71.4,3.17507
71.45,2.983445
71.5,2.732058
71.55,2.724466
71.6,2.596632
71.65,2.537158
71.7,2.550295
71.75,2.456613
71.8,2.255726
71.85,2.114846
71.9,2.088126
71.95,2.038737
72,1.86812
72.05,1.888785
72.1,1.902902
72.15,1.893005
72.2,1.901914
72.25,1.929661
72.3,1.761807
72.35,1.679483
72.4,1.664235
72.45,1.672402
72.5,1.579481
72.55,1.520876
72.6,1.522184
72.65,1.545
72.7,1.558955
72.75,1.546983
72.8,1.491217
72.85,1.449834
72.9,1.414326
72.95,1.410496
73,1.407497
73.05,1.326227
73.1,1.260569
73.15,1.24865
73.2,1.239562
73.25,1.260055
73.3,1.197221
73.35,1.164155
73.4,1.06907
73.45,1.068755
73.5,1.073883
73.55,1.075074
73.6,1.102739
73.65,1.198108
73.7,1.213747
73.75,1.094078
73.8,1.0777
73.85,1.0421
73.9,0.8919055
73.95,0.7859747
74,0.6716242
74.05,0.5971318
74.1,0.5956419
74.15,0.6718737
74.2,0.7816976
74.25,0.7187157
74.3,0.7664238
74.35,0.7822942
74.4,0.7315031
74.45,0.7168375
74.5,0.7056279
74.55,0.726895
74.6,0.7191011
74.65,0.7728463
74.7,0.8203799
74.75,0.7742147
74.8,0.8036297
74.85,0.883568
74.9,0.9642901
74.95,1.050069
75,1.034114
75.05,0.9690813
75.1,0.8921989
75.15,0.8419612
75.2,0.8938875
75.25,0.9080703
75.3,0.8780968
75.35,0.8496041
75.4,0.9083989
75.45,0.9017447
75.5,0.759127
75.55,0.7235316
75.6,0.765266
75.65,0.7851098
75.7,0.7820608
75.75,0.8476234
75.8,0.8929719
75.85,0.8712578
75.9,0.8050395
75.95,0.9063956
76,0.7549559
76.05,0.5513968
76.1,0.4053645
76.15,0.388492
76.2,0.4317367
76.25,0.5274191
76.3,0.4803458
76.35,0.3766566
76.4,0.2453258
76.45,0.2618477
76.5,0.3917837
76.55,0.5240045
76.6,0.548898
76.65,0.626353
76.7,0.8103969
76.75,1.398925
76.8,2.724266
76.85,5.846624
76.9,12.79633
76.95,26.34849
77,49.45913
77.05,84.63882
77.1,133.7065
77.15,194.3543
77.2,260.5657
77.25,323.85
77.3,375.2901
77.35,406.732
77.4,412.1524
77.45,392.7541
77.5,353.9553
77.55,301.1659
77.6,242.9865
77.65,186.8336
77.7,140.3814
77.75,104.7104
77.8,79.66266
77.85,64.1301
77.9,54.56907
77.95,46.75506
78,40.75012
78.05,36.0177
78.1,32.82014
78.15,30.07453
78.2,28.3584
78.25,27.08925
78.3,25.47485
78.35,23.58764
78.4,21.67917
78.45,19.46145
78.5,17.45816
78.55,16.02267
78.6,14.81977
78.65,13.41617
78.7,12.02343
78.75,10.8992
78.8,9.697275
78.85,8.74526
78.9,8.013084
78.95,7.378174
79,6.769044
79.05,6.21189
79.1,5.796094
79.15,5.493849
79.2,5.243314
79.25,4.905664
79.3,4.424556
79.35,3.975206
79.4,3.616959
79.45,3.28565
79.5,2.948729
79.55,2.960359
79.6,2.884763
79.65,2.702108
79.7,2.408354
79.75,2.261228
79.8,2.245426
79.85,2.220642
79.9,2.006904
79.95,1.958797
80,1.733334
80.05,1.584648
80.1,1.527731
80.15,1.573494
80.2,1.596394
80.25,1.488316
80.3,1.345682
80.35,1.262678
80.4,1.146684
80.45,0.9961981
80.5,0.9211513
80.55,0.8203001
80.6,0.7495658
80.65,0.7275895
80.7,0.6909377
80.75,0.5984654
80.8,0.5998164
80.85,0.679119
80.9,0.7737331
80.95,0.8645015
81,0.8322616
81.05,0.6475351
81.1,0.4330342
81.15,0.3794038
81.2,0.4188613
81.25,0.4522831
81.3,0.4553772
81.35,0.3474996
81.4,0.1933977
81.45,8.656812E-02
81.5,0.1344829
81.55,0.1737476
81.6,6.747716E-02
81.65,-8.482415E-02
81.7,-0.1737008
81.75,-0.183046
81.8,-0.0680358
81.85,0.0997078
81.9,0.2585214
81.95,0.216166
82,0.1075621
82.05,1.902701E-02
82.1,9.665377E-02
82.15,8.488385E-02
82.2,0.137991
82.25,0.1110773
82.3,0.1201382
82.35,0.3918486
82.4,0.7974085
82.45,1.844349
82.5,3.886499
82.55,8.203508
82.6,16.47955
82.65,30.98933
82.7,53.278
82.75,85.75909
82.8,129.3866
82.85,182.6365
82.9,242.0951
82.95,301.9693
83,353.4727
83.05,388.7487
83.1,402.2713
83.15,395.1673
83.2,370.4155
83.25,332.3386
83.3,287.2728
83.35,239.6246
83.4,194.0649
83.45,154.4364
83.5,124.0057
83.55,102.8482
83.6,87.74104
83.65,76.83039
83.7,69.07823
83.75,62.47459
83.8,57.32579
83.85,52.76653
83.9,48.9135
83.95,45.41041
84,41.26858
84.05,38.08163
84.1,34.85866
84.15,31.95861
84.2,29.45736
84.25,27.05921
84.3,25.02525
84.35,22.82174
84.4,20.29528
84.45,18.19805
84.5,16.09484
84.55,14.29745
84.6,12.77522
84.65,11.63334
84.7,10.65326
84.75,9.625736
84.8,8.566482
84.85,7.864782
84.9,7.485625
84.95,7.096698
85,6.815114
85.05,6.358123
85.1,5.590324
85.15,4.87825
85.2,4.355505
85.25,3.986125
85.3,3.839016
85.35,3.751276
85.4,3.652356
85.45,3.499312
85.5,3.240335
85.55,2.89093
85.6,2.497062
85.65,2.177274
85.7,1.894638
85.75,1.668688
85.8,1.600271
85.85,1.506744
85.9,1.355857
85.95,1.310699
86,1.239759
86.05,1.069754
86.1,1.030482
86.15,1.026733
86.2,0.9073712
86.25,1.018162
86.3,1.087645
86.35,1.085095
86.4,1.028395
86.45,1.042744
86.5,0.9779607
86.55,0.7974689
86.6,0.7958202
86.65,0.7019185
86.7,0.6424974
86.75,0.7179875
86.8,0.7444044
86.85,0.8662488
86.9,1.164535
86.95,2.013414
87,3.763261
87.05,7.375079
87.1,13.83934
87.15,24.8032
87.2,42.96316
87.25,70.09598
87.3,107.4944
87.35,154.6738
87.4,208.83
87.45,266.4357
87.5,322.4335
87.55,371.088
87.6,406.5807
87.65,426.4679
87.7,427.544
87.75,411.911
87.8,382.6901
87.85,344.8877
87.9,302.3508
87.95,257.631
88,215.7975
88.05,180.6299
88.1,150.6018
88.15,128.1491
88.2,110.7579
88.25,98.11172
88.3,87.14465
88.35,77.89541
88.4,70.5062
88.45,64.00285
88.5,56.94734
88.55,50.94204
88.6,45.04465
88.65,39.7177
88.7,34.67492
88.75,30.33958
88.8,26.70791
88.85,23.72547
88.9,20.75463
88.95,18.10213
89,15.89642
89.05,14.04121
89.1,12.21995
89.15,10.985
89.2,10.02373
89.25,8.891276
89.3,7.703897
89.35,6.720916
89.4,5.738427
89.45,4.771628
89.5,4.144973
89.55,3.807616
89.6,3.554647
89.65,3.203933
89.7,2.993402
89.75,2.843657
89.8,2.548059
89.85,2.187564
89.9,1.727952
89.95,1.289459
90,0.8820148
90.05,0.6258245
90.1,0.9698924
90.15,2.172118
90.2,4.203077
90.25,7.988263
90.3,14.47643
90.35,25.29579
90.4,41.69156
90.45,66.64304
90.5,100.5662
90.55,142.9887
90.6,191.3702
90.65,242.0979
90.7,291.8387
90.75,336.5329
90.8,373.9539
90.85,397.9742
90.9,406.9338
90.95,402.5411
91,386.1724
91.05,359.93
91.1,327.1713
91.15,291.1256
91.2,255.6494
91.25,221.2568
91.3,190.53
91.35,163.9783
91.4,140.8243
91.45,120.8525
91.5,104.5227
91.55,92.5813
91.6,82.9663
91.65,74.06709
91.7,66.52502
91.75,59.5174
91.8,52.83378
91.85,46.96264
91.9,42.26019
91.95,38.055
92,33.75111
92.05,29.33953
92.1,25.86014
92.15,22.54685
92.2,20.46905
92.25,18.78083
92.3,17.15979
92.35,15.18299
92.4,13.22549
92.45,11.48113
92.5,10.92812
92.55,9.970434
92.6,9.196474
92.65,8.196044
92.7,7.608099
92.75,7.095284
92.8,6.477591
92.85,5.910945
92.9,5.302852
92.95,4.496859
93,3.875052
93.05,3.414641
93.1,3.105149
93.15,2.763412
93.2,2.419916
93.25,2.170117
93.3,2.024078
93.35,1.76459
93.4,1.422672
93.45,1.024143
93.5,0.5516875
93.55,9.350334E-02
93.6,-0.214832
93.65,-0.2370175
93.7,-0.1859351
93.75,-7.266255E-02
93.8,-0.1627633
93.85,-0.4380469
93.9,-0.7125238
93.95,-0.8045215
94,-0.9190514
94.05,-0.6310734
94.1,8.612585E-02
94.15,1.278701
94.2,2.991309
94.25,5.543472
94.3,10.04019
94.35,18.19555
94.4,30.79099
94.45,49.07345
94.5,74.019
94.55,107.416
94.6,145.0126
94.65,189.2635
94.7,235.0284
94.75,282.6035
94.8,327.8955
94.85,366.413
94.9,395.7868
94.95,416.6235
95,425.7008
95.05,424.324
95.1,413.5536
95.15,395.7686
95.2,370.6838
95.25,342.2741
95.3,312.1311
95.35,280.9613
95.4,249.0825
95.45,219.0794
95.5,191.9426
95.55,168.256
95.6,147.7359
95.65,128.9602
95.7,111.8018
95.75,96.2561
95.8,82.25536
95.85,70.60099
95.9,61.38671
95.95,53.92491
96,46.89211
96.05,40.82299
96.1,35.40586
96.15,30.49382
96.2,26.96271
96.25,24.16482
96.3,21.9316
96.35,20.05713
96.4,17.77798
96.45,15.28542
96.5,13.72467
96.55,11.8472
96.6,10.42625
96.65,9.250961
96.7,8.68875
96.75,8.088363
96.8,7.295467
96.85,6.894967
96.9,6.46796
96.95,5.32092
97,4.710468
97.05,4.25042
97.1,3.664229
97.15,3.265514
97.2,2.997224
97.25,2.762145
97.3,2.361964
97.35,1.955027
97.4,1.963307
97.45,2.071545
97.5,2.099266
97.55,2.053002
97.6,1.878463
97.65,1.568691
97.7,1.01685
97.75,0.5877088
97.8,0.4401357
97.85,0.2304051
97.9,-2.973852E-03
97.95,-0.1284855
98,-0.1492004
98.05,-8.864172E-02
98.1,-2.692955E-02
98.15,9.180958E-02
98.2,4.635563E-02
98.25,-0.330341
98.3,-0.6527115
98.35,-0.7314714
98.4,-0.8328826
98.45,-0.6648724
98.5,-0.7795164
98.55,-0.720615
98.6,-0.5555705
98.65,-0.4974474
98.7,-0.2056219
98.75,-0.3318962
98.8,-0.4824913
98.85,-0.8380589
98.9,-1.052109
98.95,-1.162929
99,-1.213863
99.05,-1.21632
99.1,-1.306219
99.15,-1.418986
99.2,-1.513051
99.25,-1.646235
99.3,-1.36765
99.35,-0.9944862
99.4,-0.68349
99.45,-0.563947
99.5,-0.7490318
99.55,-0.992363
99.6,-1.129298
99.65,-0.9409562
99.7,-0.6594607
99.75,-0.733933
99.8,-1.018222
99.85,-1.390539
99.9,-1.793383
99.95,-1.939309
100,-1.898507
100.05,-1.758811
100.1,-1.502286
100.15,-1.241184
100.2,-1.050534
100.25,-1.266271
100.3,-1.647642
100.35,-1.989248
100.4,-1.883038
100.45,-0.9596038
100.5,1.301067
100.55,5.46117
100.6,12.3414
100.65,22.73949
100.7,36.44217
100.75,55.73465
100.8,83.80044
100.85,117.3555
100.9,159.2195
100.95,210.4264
101,267.5769
101.05,326.4884
101.1,382.249
101.15,431.6874
101.2,473.1451
101.25,505.9073
101.3,529.6457
101.35,538.7394
101.4,531.828
101.45,514.9846
101.5,490.3754
101.55,459.7299
101.6,421.837
101.65,379.0323
101.7,335.5332
101.75,292.3097
101.8,254.7078
101.85,222.4912
101.9,192.1378
101.95,161.6949
102,134.1429
102.05,111.5801
102.1,94.31339
102.15,80.79855
102.2,70.87488
102.25,61.61673
102.3,52.75974
102.35,43.98397
102.4,36.70043
102.45,29.74027
102.5,25.72796
102.55,22.56347
102.6,19.59876
102.65,16.86782
102.7,13.76639
102.75,10.51921
102.8,7.961143
102.85,6.441775
102.9,5.690708
102.95,5.167904
103,4.833814
103.05,4.549205
103.1,4.085893
103.15,3.117815
103.2,2.442024
103.25,1.820969
103.3,1.212556
103.35,1.091535
103.4,0.9006003
103.45,0.5508274
103.5,0.3348427
103.55,0.4303015
103.6,1.002078
103.65,2.403795
103.7,4.608927
103.75,8.129298
103.8,13.82647
103.85,22.69747
103.9,35.81629
103.95,54.84013
104,81.22682
104.05,113.4605
104.1,153.121
104.15,202.2453
104.2,261.1171
104.25,324.3261
104.3,389.2631
104.35,447.9284
104.4,496.2637
104.45,528.3201
104.5,551.5648
104.55,567.5142
104.6,573.1116
104.65,564.9327
104.7,546.238
104.75,515.6465
104.8,480.1355
104.85,437.0006
104.9,397.7886
104.95,351.4037
105,304.0648
105.05,260.0059
105.1,220.812
105.15,186.2209
105.2,155.3949
105.25,129.4638
105.3,107.8106
105.35,88.408
105.4,74.39014
105.45,62.66628
105.5,52.74732
105.55,44.99659
105.6,39.0796
105.65,34.18131
105.7,29.02774
105.75,24.52782
105.8,20.73852
105.85,17.26644
105.9,14.28994
105.95,11.87851
106,10.50599
106.05,10.01841
106.1,10.35849
106.15,10.57805
106.2,10.08931
106.25,8.881041
106.3,6.966195
106.35,5.255521
106.4,4.676618
106.45,5.293232
106.5,5.58655
106.55,5.180042
106.6,4.995344
106.65,4.244477
106.7,3.541098
106.75,3.370812
106.8,4.126145
106.85,4.360838
106.9,3.859016
106.95,3.748985
107,3.314749
107.05,2.216641
107.1,0.9238618
107.15,-0.2376031
107.2,-0.2490493
107.25,-0.2062865
107.3,-0.0682555
107.35,-0.1279501
107.4,0.1220409
107.45,0.3463033
107.5,0.5046684
107.55,0.6572338
107.6,0.6987
107.65,0.5504578
107.7,0.4148855
107.75,0.9072266
107.8,1.625091
107.85,2.067975
107.9,2.448087
107.95,2.527915
108,2.541011
108.05,2.451302
108.1,2.707951
108.15,3.039285
108.2,2.942489
108.25,2.486553
108.3,1.529432
108.35,0.3398592
108.4,-0.4786098
108.45,-0.3250044
108.5,0.5904453
108.55,1.127937
108.6,2.738742
108.65,3.861665
108.7,4.725405
108.75,5.595164
108.8,8.373249
108.85,15.28419
108.9,22.85633
108.95,32.9011
109,47.25134
109.05,64.75885
109.1,89.23997
109.15,119.4767
109.2,149.9906
109.25,186.0569
109.3,224.753
109.35,272.0918
109.4,320.4357
109.45,364.9934
109.5,403.6352
109.55,428.9606
109.6,450.8683
109.65,469.5994
109.7,481.8874
109.75,489.8024
109.8,491.1032
109.85,485.4829
109.9,465.3591
109.95,436.0302
110,405.8188
110.05,371.4663
110.1,335.0708
110.15,300.7277
110.2,269.0992
110.25,239.7629
110.3,216.8531
110.35,200.2089
110.4,184.0452
110.45,164.3134
110.5,140.6457
110.55,119.3373
110.6,100.0497
110.65,85.18475
110.7,75.09966
110.75,63.80133
110.8,53.72498
110.85,41.89283
110.9,32.21012
110.95,28.56425
111,24.90919
111.05,23.77862
111.1,23.27498
111.15,18.84105
111.2,14.82742
111.25,11.43991
111.3,10.28009
111.35,9.757035
111.4,8.782301
111.45,8.029815
111.5,6.738549
111.55,4.993063
111.6,3.976624
111.65,3.335132
111.7,2.680618
111.75,1.362468
111.8,0.4041561
111.85,0.1508114
111.9,-0.1453726
111.95,0.1218183
112,1.995604
112.05,4.40575
112.1,7.001375
112.15,9.947906
112.2,14.33598
112.25,20.50002
112.3,27.8263
112.35,36.72091
112.4,50.47486
112.45,66.89967
112.5,80.21564
112.55,95.66756
112.6,113.3117
112.65,127.962
112.7,140.4552
112.75,155.301
112.8,167.8226
112.85,175.7016
112.9,184.0277
112.95,191.9698
113,197.1656
113.05,196.3686
113.1,193.9406
113.15,185.5835
113.2,171.8569
113.25,160.9055
113.3,149.8286
113.35,138.0396
113.4,126.0534
113.45,111.741
113.5,96.79147
113.55,80.02905
113.6,66.39767
113.65,56.65797
113.7,49.96399
113.75,46.0014
113.8,41.04338
113.85,34.18293
113.9,27.11706
113.95,21.49345
114,17.18468
114.05,14.78827
114.1,14.12852
114.15,13.4243
114.2,11.63653
114.25,9.615492
114.3,7.232119
114.35,3.309571
114.4,0.372713
114.45,-0.2139322
114.5,0.5062552
114.55,2.077287
114.6,2.914525
114.65,2.702219
114.7,1.445161
114.75,-0.2302405
114.8,-0.6076965
114.85,-0.3093107
114.9,-0.1811636
114.95,-0.8993029
115,-2.028579
115.05,-2.904687
115.1,-3.410551
115.15,-2.998238
115.2,-2.378965
115.25,-2.212219
115.3,-2.673845
115.35,-3.016529
115.4,-2.892035
115.45,-2.286225
115.5,-1.244936
115.55,-0.9673287
115.6,-1.250992
115.65,-1.816553
115.7,-2.69206
115.75,-3.317021
115.8,-3.752911
115.85,-3.86992
115.9,-3.522058
115.95,-2.964411
116,-2.854176
116.05,-3.647046
116.1,-4.779751
116.15,-5.88601
116.2,-6.537627
116.25,-6.345665
116.3,-5.833078
116.35,-5.610227
116.4,-5.720911
116.45,-5.974974
116.5,-6.238071
116.55,-5.998241
116.6,-5.677217
116.65,-5.505437
116.7,-5.79885
116.75,-6.091367
116.8,-6.620264
116.85,-7.224678
116.9,-7.469293
116.95,-7.537628
117,-7.687344
117.05,-8.046285
117.1,-8.151595
117.15,-8.258278
117.2,-8.386081
117.25,-8.241632
117.3,-7.956338
117.35,-7.592593
117.4,-7.602291
117.45,-7.424999
117.5,-7.491384
117.55,-8.04636
117.6,-8.094512
117.65,-7.84934
117.7,-7.855687
117.75,-7.878918
117.8,-7.957541
117.85,-7.941647
117.9,-8.257143
117.95,-8.438528
118,-8.208217
118.05,-8.068272
118.1,-8.192657
118.15,-8.282774
118.2,-8.37042
118.25,-8.646837
118.3,-9.074896
118.35,-9.389885
118.4,-9.34657
118.45,-9.075191
118.5,-8.679771
118.55,-8.308372
118.6,-8.309108
118.65,-8.49943
118.7,-8.802802
118.75,-9.143545
118.8,-9.121635
118.85,-9.008125
118.9,-8.969117
118.95,-8.940825
119,-8.655292
119.05,-8.020893
119.1,-7.85744
119.15,-8.054388
119.2,-8.301889
119.25,-8.752309
119.3,-9.042541
119.35,-9.04463
119.4,-8.798498
119.45,-8.662648
119.5,-8.82287
119.55,-8.735147
119.6,-8.493958
119.65,-8.177071
119.7,-7.888549
119.75,-7.97534
119.8,-8.259081
119.85,-8.632106
119.9,-8.8622
119.95,-8.964523
120,-9.038354
120.05,-9.072241
120.1,-9.218131
120.15,-9.356281
120.2,-9.345593
120.25,-9.241559
120.3,-9.005536
120.35,-8.831316
120.4,-8.772526
120.45,-8.823592
120.5,-9.004802
120.55,-9.285992
120.6,-9.079682
120.65,-8.567042
120.7,-8.170955
120.75,-8.205829
120.8,-8.377847
120.85,-8.791267
120.9,-9.282517
120.95,-9.490714
121,-9.347376
121.05,-9.164188
121.1,-9.154349
121.15,-9.17889
121.2,-9.138385
121.25,-9.272422
121.3,-9.299069
121.35,-9.361607
121.4,-9.380394
121.45,-9.308284
121.5,-9.284843
121.55,-9.205379
121.6,-9.138063
121.65,-8.97375
121.7,-8.679685
121.75,-8.350633
121.8,-8.286692
121.85,-8.423
121.9,-8.757454
121.95,-9.124909
122,-9.284638
122.05,-9.175489
122.1,-8.998745
122.15,-9.004604
122.2,-9.213059
122.25,-9.382166
122.3,-9.443931
122.35,-9.390312
122.4,-9.221904
122.45,-9.12221
122.5,-9.009824
122.55,-8.87042
122.6,-8.584473
122.65,-8.24351
122.7,-8.138419
122.75,-8.363021
122.8,-8.722326
122.85,-9.140197
122.9,-9.327359
122.95,-9.29284
123,-9.190129
123.05,-9.241472
123.1,-9.32383
123.15,-9.563324
123.2,-9.588032
123.25,-9.626784
123.3,-9.526706
123.35,-9.409883
123.4,-9.44552
123.45,-9.347497
123.5,-9.299849
123.55,-9.356531
123.6,-9.349299
123.65,-9.48053
123.7,-9.435762
123.75,-9.096812
123.8,-8.890763
123.85,-8.685857
123.9,-8.642653
123.95,-8.708293
124,-8.878137
124.05,-8.860115
124.1,-8.839829
124.15,-8.920617
124.2,-9.085258
124.25,-9.091179
124.3,-9.075359
124.35,-9.086762
124.4,-8.958653
124.45,-8.906949
124.5,-9.05907
124.55,-9.191792
124.6,-9.175641
124.65,-9.156306
124.7,-9.175448
124.75,-9.150071
124.8,-9.143686
124.85,-9.19671
124.9,-9.13681
124.95,-8.940996
125,-8.794871
125.05,-8.743473
125.1,-8.736572
125.15,-8.931688
125.2,-9.209478
125.25,-9.258337
125.3,-9.129735
125.35,-8.938343
125.4,-8.929227
125.45,-9.091407
125.5,-9.298852
125.55,-9.517396
125.6,-9.407577
125.65,-9.279882
125.7,-9.240387
125.75,-9.267736
125.8,-9.398137
125.85,-9.414768
125.9,-9.376887
125.95,-9.307295
126,-9.234098
126.05,-9.282187
126.1,-9.249385
126.15,-9.239965
126.2,-9.182989
126.25,-9.187967
126.3,-9.149608
126.35,-9.04278
126.4,-9.024149
126.45,-9.065502
126.5,-9.100083
126.55,-9.125664
126.6,-9.194427
126.65,-9.159801
126.7,-9.053873
126.75,-9.031135
126.8,-8.901416
126.85,-8.782216
126.9,-8.763834
126.95,-8.871131
127,-8.936045
127.05,-8.849048
127.1,-8.928087
127.15,-8.924709
127.2,-8.899207
127.25,-9.041643
127.3,-9.098291
127.35,-8.922213
127.4,-8.783004
127.45,-8.811616
127.5,-8.938056
127.55,-9.027759
127.6,-9.023706
127.65,-8.947913
127.7,-8.898905
127.75,-8.971554
127.8,-9.027803
127.85,-8.999886
127.9,-9.074067
127.95,-9.207061
128,-9.297917
128.05,-9.389185
128.1,-9.39597
128.15,-9.332765
128.2,-9.215911
128.25,-9.196803
128.3,-9.179514
128.35,-9.195949
128.4,-9.194365
128.45,-9.109351
128.5,-9.093821
128.55,-9.142371
128.6,-9.180984
128.65,-9.248618
128.7,-9.372359
128.75,-9.425305
128.8,-9.29016
128.85,-9.254066
128.9,-9.287999
128.95,-9.277728
129,-9.17566
129.05,-9.166903
129.1,-9.04829
129.15,-8.940219
129.2,-8.968989
129.25,-9.006731
129.3,-8.88527
129.35,-8.900225
129.4,-9.005406
129.45,-9.169521
129.5,-9.272278
129.55,-9.2853
129.6,-9.28528
129.65,-9.117635
129.7,-9.106311
129.75,-8.992249
129.8,-8.99988
129.85,-9.019127
129.9,-9.081794
129.95,-9.111451
130,-9.264725
130.05,-9.328014
130.1,-9.329885
130.15,-9.225937
130.2,-9.266556
130.25,-9.32314
130.3,-9.432669
130.35,-9.539931
130.4,-9.657856
130.45,-9.665227
130.5,-9.542888
130.55,-9.458248
130.6,-9.42184
130.65,-9.405141
130.7,-9.413986
130.75,-9.435499
130.8,-9.426437
130.85,-9.450385
130.9,-9.530394
130.95,-9.678149
131,-9.742402
131.05,-9.803828
131.1,-9.773312
131.15,-9.602215
131.2,-9.424542
131.25,-9.32356
131.3,-9.229474
131.35,-9.284137
131.4,-9.346153
131.45,-9.461445
131.5,-9.394957
131.55,-9.330138
131.6,-9.374097
131.65,-9.342571
131.7,-9.420904
131.75,-9.545878
131.8,-9.504891
131.85,-9.521364
131.9,-9.447786
131.95,-9.489303
132,-9.409537
132.05,-9.399009
132.1,-9.417338
132.15,-9.400693
132.2,-9.393271
132.25,-9.448608
132.3,-9.413889
132.35,-9.418164
132.4,-9.420765
132.45,-9.394367
132.5,-9.397194
132.55,-9.456788
132.6,-9.48946
132.65,-9.515133
132.7,-9.458769
132.75,-9.355943
132.8,-9.263934
132.85,-9.180836
132.9,-9.185317
132.95,-9.255883
133,-9.384962
133.05,-9.457952
133.1,-9.438195
133.15,-9.524992
133.2,-9.526257
133.25,-9.434442
133.3,-9.499155
133.35,-9.551611
133.4,-9.508328
133.45,-9.379647
133.5,-9.334302
133.55,-9.399681
133.6,-9.42446
133.65,-9.190946
133.7,-9.119919
133.75,-9.117286
133.8,-9.114672
133.85,-9.129289
133.9,-9.222681
133.95,-9.215871
134,-9.080232
134.05,-9.04504
134.1,-9.201582
134.15,-9.316342
134.2,-9.367227
134.25,-9.345644
134.3,-9.321708
134.35,-9.301457
134.4,-9.291829
134.45,-9.282895
134.5,-9.239128
134.55,-9.211549
134.6,-9.129389
134.65,-9.139299
134.7,-9.230306
134.75,-9.273684
134.8,-9.327693
134.85,-9.283317
134.9,-9.146768
134.95,-9.061148
135,-9.003081
135.05,-9.091173
135.1,-9.155286
135.15,-9.24817
135.2,-9.308277
135.25,-9.347611
135.3,-9.417835
135.35,-9.493813
135.4,-9.499083
135.45,-9.493359
135.5,-9.52918
135.55,-9.512326
135.6,-9.469007
135.65,-9.481299
135.7,-9.384578
135.75,-9.246511
135.8,-9.248555
135.85,-9.261148
135.9,-9.468211
135.95,-9.608316
136,-9.649263
136.05,-9.521715
136.1,-9.393487
136.15,-9.350914
136.2,-9.375483
136.25,-9.424358
136.3,-9.449604
136.35,-9.286745
136.4,-9.096519
136.45,-9.010604
136.5,-8.995251
136.55,-9.010202
136.6,-9.083089
136.65,-9.18681
136.7,-9.22525
136.75,-9.22525
136.8,-9.22525
136.85,-9.22525
136.9,-9.22525
136.95,-9.22525
137,-9.22525
137.05,-9.22525
137.1,-9.22525
137.15,-9.22525
137.2,-9.22525
137.25,-9.22525
137.3,-9.22525
137.35,-9.22525
137.4,-9.22525
137.45,-9.22525
137.5,-9.22525
137.55,-9.22525
137.6,-9.22525
137.65,-9.22525
137.7,-9.22525
137.75,-9.22525
137.8,-9.22525
137.85,-9.22525
137.9,-9.22525
137.95,-9.22525
138,-9.22525
 
Alignment,On
