Data File Name,NK_20170705_High Sensitivity DNA Assay_DE24802700_2017-07-05_15-31-53.xad
Data File Path,C:\Users\jlchiniquy\Desktop\20171205_Nextera_library_size_to_loading_concentration_tool\NKaplan
Date Created,"Wednesday, July 05, 2017 10:31:53 PM"
Date Last Modified,"Wednesday, July 05, 2017 11:23:33 PM"
Version Created,B.02.07.SI532
Version Last Modified,B.02.07.SI532
 
Assay Name,High Sensitivity DNA
Assay Path,C:\Program Files\Agilent\2100 bioanalyzer\2100 expert\assays\dsDNA
Assay Title,High Sensitivity DNA Assay
Assay Version,1.0
 
Number of Samples Run,11
 
Sample Name,Ladder
Number of Events,2121
 
Time,Value
32,-4.157555E-02
32.05,-2.257659E-02
32.1,4.259162E-02
32.15,8.659793E-02
32.2,0.1021799
32.25,0.1114503
32.3,0.1119639
32.35,0.1496861
32.4,0.1228134
32.45,0.1732612
32.5,0.1877504
32.55,0.1875298
32.6,0.1796344
32.65,0.134549
32.7,6.809323E-02
32.75,2.027714E-02
32.8,3.833615E-02
32.85,0.1013979
32.9,0.1477939
32.95,0.2202939
33,0.2957631
33.05,0.2887128
33.1,0.2499366
33.15,0.2108483
33.2,0.1658171
33.25,0.1138239
33.3,6.575213E-02
33.35,4.101753E-02
33.4,3.174147E-02
33.45,-1.092619E-02
33.5,0.0815187
33.55,0.1455755
33.6,8.560436E-02
33.65,6.952493E-02
33.7,4.625969E-02
33.75,-1.722782E-03
33.8,2.175249E-02
33.85,0.0973395
33.9,0.1785322
33.95,0.2083178
34,0.1398422
34.05,0.1045337
34.1,7.362823E-02
34.15,5.176905E-02
34.2,0.0782077
34.25,0.1269778
34.3,0.1511115
34.35,0.1763718
34.4,0.1847928
34.45,0.1434848
34.5,0.1517638
34.55,0.1916411
34.6,0.2581187
34.65,0.3309586
34.7,0.3568853
34.75,0.3459967
34.8,0.3377903
34.85,0.2293366
34.9,0.1576605
34.95,0.1212841
35,0.1216082
35.05,0.1029343
35.1,6.091778E-02
35.15,9.447825E-02
35.2,0.115853
35.25,7.826031E-02
35.3,9.038359E-02
35.35,0.1182247
35.4,0.1391899
35.45,0.1756716
35.5,0.2152997
35.55,0.2536503
35.6,0.2738405
35.65,0.295832
35.7,0.3162223
35.75,0.294154
35.8,0.264289
35.85,0.2571141
35.9,0.2489364
35.95,0.2074521
36,0.2303549
36.05,0.2936458
36.1,0.3299702
36.15,0.3814147
36.2,0.5048671
36.25,0.5511119
36.3,0.5384624
36.35,0.4323395
36.4,0.3234956
36.45,0.1927421
36.5,9.541985E-02
36.55,5.320371E-02
36.6,2.167232E-02
36.65,0.0150159
36.7,6.279623E-02
36.75,8.590478E-02
36.8,9.780049E-02
36.85,0.1442742
36.9,0.1635402
36.95,0.1254479
37,8.665261E-02
37.05,0.1029434
37.1,0.1396699
37.15,0.1304637
37.2,0.1259792
37.25,0.1616071
37.3,0.1933749
37.35,0.18446
37.4,0.1629213
37.45,0.1686783
37.5,0.2017272
37.55,0.2604737
37.6,0.3193613
37.65,0.282791
37.7,0.2404294
37.75,0.1507242
37.8,0.1037812
37.85,5.879803E-02
37.9,4.055307E-02
37.95,8.756817E-02
38,0.1484961
38.05,0.1974633
38.1,0.2778705
38.15,0.3307589
38.2,0.3666868
38.25,0.352843
38.3,0.3128468
38.35,0.3014808
38.4,0.2779176
38.45,0.2200919
38.5,0.1822262
38.55,0.2045095
38.6,0.2480024
38.65,0.2850557
38.7,0.2803399
38.75,0.2644326
38.8,0.2603971
38.85,0.2276794
38.9,0.1701157
38.95,0.1240855
39,0.1105251
39.05,9.093466E-02
39.1,0.1322953
39.15,0.1330054
39.2,0.1533937
39.25,0.2181019
39.3,0.2148551
39.35,0.2384282
39.4,0.2689867
39.45,0.2356162
39.5,0.2122925
39.55,0.1663744
39.6,0.1064937
39.65,7.195119E-02
39.7,6.649639E-02
39.75,8.918248E-02
39.8,0.1161395
39.85,0.1313931
39.9,0.1462529
39.95,0.1619972
40,0.1050567
40.05,5.909125E-02
40.1,4.384363E-02
40.15,7.438608E-02
40.2,6.852368E-02
40.25,0.1045031
40.3,0.1097179
40.35,0.1442579
40.4,0.1415624
40.45,0.1011761
40.5,5.208587E-02
40.55,8.928714E-02
40.6,0.1268604
40.65,0.1758402
40.7,0.2362195
40.75,0.2183003
40.8,0.1314735
40.85,5.741834E-02
40.9,5.162823E-02
40.95,0.1173829
41,0.1688516
41.05,0.1852531
41.1,0.190137
41.15,0.1811942
41.2,0.2046552
41.25,0.2273436
41.3,0.1898044
41.35,0.1078904
41.4,5.596901E-02
41.45,-9.967398E-03
41.5,-2.614146E-02
41.55,3.830424E-02
41.6,4.556563E-02
41.65,-2.689277E-02
41.7,-8.659134E-03
41.75,-7.795041E-02
41.8,-0.1029697
41.85,-0.1188401
41.9,-0.1443316
41.95,-0.1156367
42,-6.976062E-02
42.05,-3.646063E-02
42.1,-2.321599E-02
42.15,-7.249324E-02
42.2,-0.1306777
42.25,-0.1755567
42.3,-0.178313
42.35,-6.124238E-02
42.4,0.1928841
42.45,0.6054098
42.5,1.42702
42.55,3.09613
42.6,6.097176
42.65,11.0317
42.7,18.30645
42.75,27.81342
42.8,38.82317
42.85,49.98666
42.9,59.32875
42.95,65.03137
43,65.91071
43.05,61.84723
43.1,53.75671
43.15,43.29441
43.2,32.3927
43.25,22.54565
43.3,14.49883
43.35,8.623071
43.4,4.887969
43.45,2.806486
43.5,1.684989
43.55,1.05992
43.6,0.7438315
43.65,0.5331514
43.7,0.319666
43.75,0.146204
43.8,4.729287E-02
43.85,-1.023268E-02
43.9,-7.172777E-02
43.95,-0.1166852
44,-0.1466395
44.05,-0.1178232
44.1,-0.1136344
44.15,-0.107007
44.2,-0.1130957
44.25,-8.376905E-02
44.3,-0.0629942
44.35,-0.0708689
44.4,-0.1623169
44.45,-0.2706238
44.5,-0.3246185
44.55,-0.2523805
44.6,-1.167059E-02
44.65,0.6886324
44.7,2.244889
44.75,5.394124
44.8,10.86592
44.85,19.49082
44.9,31.53494
44.95,46.33083
45,62.13806
45.05,76.54098
45.1,86.93045
45.15,91.09917
45.2,88.05351
45.25,78.54065
45.3,64.83424
45.35,49.53826
45.4,35.06572
45.45,23.25452
45.5,14.67019
45.55,9.045656
45.6,5.523249
45.65,3.488384
45.7,2.452757
45.75,1.80297
45.8,1.359526
45.85,1.070002
45.9,0.8177269
45.95,0.7272379
46,0.6706185
46.05,0.5902458
46.1,0.5095707
46.15,0.412322
46.2,0.2861742
46.25,0.1252756
46.3,2.448642E-02
46.35,-2.798169E-03
46.4,-2.529991E-02
46.45,-8.722262E-02
46.5,-0.1548641
46.55,-0.1826017
46.6,-0.2438473
46.65,-0.338844
46.7,-0.3891398
46.75,-0.4900921
46.8,-0.5814236
46.85,-0.5863317
46.9,-0.6068479
46.95,-0.5869794
47,-0.5720685
47.05,-0.5643995
47.1,-0.581527
47.15,-0.6901586
47.2,-0.74603
47.25,-0.758467
47.3,-0.8211446
47.35,-0.8741658
47.4,-0.8822507
47.45,-0.8031809
47.5,-0.7581112
47.55,-0.7452537
47.6,-0.7255954
47.65,-0.7112854
47.7,-0.72162
47.75,-0.7532285
47.8,-0.7902235
47.85,-0.7947183
47.9,-0.8050169
47.95,-0.8892066
48,-0.939187
48.05,-0.9393352
48.1,-0.9022557
48.15,-0.8389756
48.2,-0.7974108
48.25,-0.7976956
48.3,-0.8212895
48.35,-0.8793822
48.4,-0.9086354
48.45,-0.8808312
48.5,-0.8522325
48.55,-0.7947329
48.6,-0.7485555
48.65,-0.685764
48.7,-0.6161705
48.75,-0.6413453
48.8,-0.740512
48.85,-0.8539641
48.9,-0.9194056
48.95,-0.914683
49,-0.8956974
49.05,-0.8188854
49.1,-0.7362691
49.15,-0.7765131
49.2,-0.8854653
49.25,-0.9729321
49.3,-1.026178
49.35,-1.050052
49.4,-1.094929
49.45,-1.12575
49.5,-1.139612
49.55,-1.220877
49.6,-1.298243
49.65,-1.157342
49.7,-0.8424598
49.75,0.2672059
49.8,2.911921
49.85,8.445315
49.9,18.68757
49.95,33.9812
50,53.74727
50.05,75.73198
50.1,96.27657
50.15,111.2258
50.2,117.1905
50.25,113.2379
50.3,100.4814
50.35,81.76665
50.4,61.29757
50.45,42.71282
50.5,27.97474
50.55,17.60387
50.6,10.96785
50.65,6.972879
50.7,4.549456
50.75,2.932803
50.8,1.967811
50.85,1.370731
50.9,0.8725035
50.95,0.468218
51,0.1748984
51.05,-0.1220221
51.1,-0.3241052
51.15,-0.4613678
51.2,-0.6026362
51.25,-0.7139012
51.3,-0.7840773
51.35,-0.8575463
51.4,-0.8613329
51.45,-0.8755703
51.5,-0.9122087
51.55,-0.9510728
51.6,-0.9527455
51.65,-0.9489875
51.7,-0.9978217
51.75,-1.066803
51.8,-1.153533
51.85,-1.237767
51.9,-1.283053
51.95,-1.305714
52,-1.243471
52.05,-1.151123
52.1,-1.150635
52.15,-1.157104
52.2,-1.160795
52.25,-1.213929
52.3,-1.2905
52.35,-1.476043
52.4,-1.534395
52.45,-1.572124
52.5,-1.615103
52.55,-1.585862
52.6,-1.510982
52.65,-1.51723
52.7,-1.57385
52.75,-1.624332
52.8,-1.66476
52.85,-1.709181
52.9,-1.71855
52.95,-1.709935
53,-1.694937
53.05,-1.702717
53.1,-1.728024
53.15,-1.781376
53.2,-1.830564
53.25,-1.809114
53.3,-1.749725
53.35,-1.702299
53.4,-1.719679
53.45,-1.75848
53.5,-1.776769
53.55,-1.834581
53.6,-1.87291
53.65,-1.843218
53.7,-1.801352
53.75,-1.74908
53.8,-1.709616
53.85,-1.67417
53.9,-1.62259
53.95,-1.578508
54,-1.51999
54.05,-1.522046
54.1,-1.482153
54.15,-1.348065
54.2,-0.5363912
54.25,1.755392
54.3,7.034258
54.35,16.88217
54.4,32.24855
54.45,52.9903
54.5,77.21279
54.55,101.0174
54.6,119.9904
54.65,130.3321
54.7,129.5735
54.75,118.496
54.8,99.78179
54.85,77.72073
54.9,56.47106
54.95,38.61227
55,25.29675
55.05,16.34836
55.1,10.44407
55.15,6.896305
55.2,4.561768
55.25,3.06122
55.3,2.062577
55.35,1.28202
55.4,0.6386783
55.45,0.1721799
55.5,-0.1471763
55.55,-0.4826106
55.6,-0.7653388
55.65,-0.9903558
55.7,-1.168255
55.75,-1.253126
55.8,-1.270571
55.85,-1.304633
55.9,-1.416606
55.95,-1.561843
56,-1.62808
56.05,-1.634498
56.1,-1.645268
56.15,-1.630086
56.2,-1.588722
56.25,-1.627928
56.3,-1.677918
56.35,-1.736174
56.4,-1.74395
56.45,-1.740919
56.5,-1.738965
56.55,-1.730425
56.6,-1.69135
56.65,-1.685571
56.7,-1.724863
56.75,-1.799392
56.8,-1.857318
56.85,-1.854565
56.9,-1.833725
56.95,-1.831096
57,-1.805254
57.05,-1.76327
57.1,-1.742822
57.15,-1.77048
57.2,-1.83873
57.25,-1.936835
57.3,-2.031168
57.35,-2.038228
57.4,-1.92901
57.45,-1.77216
57.5,-1.749633
57.55,-1.83698
57.6,-1.950257
57.65,-2.065659
57.7,-2.215052
57.75,-2.241035
57.8,-2.250565
57.85,-2.278863
57.9,-2.362505
57.95,-2.308372
58,-2.224365
58.05,-2.158612
58.1,-2.173246
58.15,-2.214358
58.2,-2.288775
58.25,-2.315753
58.3,-2.280753
58.35,-2.192093
58.4,-2.072813
58.45,-2.037409
58.5,-1.988544
58.55,-1.613833
58.6,-0.3328338
58.65,2.941111
58.7,9.667127
58.75,21.17608
58.8,37.98529
58.85,59.56715
58.9,83.66489
58.95,107.3334
59,125.8085
59.05,135.1961
59.1,134.1016
59.15,123.1507
59.2,104.8415
59.25,83.94921
59.3,63.701
59.35,46.64837
59.4,33.23557
59.45,23.41529
59.5,16.66091
59.55,11.9789
59.6,8.754394
59.65,6.540664
59.7,4.932602
59.75,3.748888
59.8,2.903017
59.85,2.211916
59.9,1.574202
59.95,0.9884941
60,0.4762367
60.05,9.994569E-02
60.1,-0.1967476
60.15,-0.479785
60.2,-0.7637753
60.25,-0.9971413
60.3,-1.151987
60.35,-1.261177
60.4,-1.398599
60.45,-1.473823
60.5,-1.53447
60.55,-1.634593
60.6,-1.659138
60.65,-1.688106
60.7,-1.706937
60.75,-1.73747
60.8,-1.773335
60.85,-1.756765
60.9,-1.755263
60.95,-1.756538
61,-1.763726
61.05,-1.792974
61.1,-1.849274
61.15,-1.898335
61.2,-1.943373
61.25,-1.990528
61.3,-2.019845
61.35,-2.011291
61.4,-1.988779
61.45,-2.016783
61.5,-2.002087
61.55,-1.980037
61.6,-1.982978
61.65,-2.005684
61.7,-2.045397
61.75,-2.083915
61.8,-2.170968
61.85,-2.222279
61.9,-2.162835
61.95,-2.060472
62,-2.027149
62.05,-2.029558
62.1,-2.082445
62.15,-2.160687
62.2,-2.278714
62.25,-2.374107
62.3,-2.38901
62.35,-2.391966
62.4,-2.446132
62.45,-2.520357
62.5,-2.584608
62.55,-2.648128
62.6,-2.676519
62.65,-2.663594
62.7,-2.646948
62.75,-2.620464
62.8,-2.614806
62.85,-2.622834
62.9,-2.635182
62.95,-2.629495
63,-2.584873
63.05,-2.575343
63.1,-2.624701
63.15,-2.593246
63.2,-2.560043
63.25,-2.557829
63.3,-2.604472
63.35,-2.658423
63.4,-2.706051
63.45,-2.781895
63.5,-2.823434
63.55,-2.798198
63.6,-2.741835
63.65,-2.680053
63.7,-2.672007
63.75,-2.635546
63.8,-2.587798
63.85,-2.596165
63.9,-2.626155
63.95,-2.610431
64,-2.571857
64.05,-2.548897
64.1,-2.511263
64.15,-2.469258
64.2,-2.420383
64.25,-2.434292
64.3,-2.463633
64.35,-2.476148
64.4,-2.517168
64.45,-2.588457
64.5,-2.617601
64.55,-2.676935
64.6,-2.682964
64.65,-2.663929
64.7,-2.628833
64.75,-2.617788
64.8,-2.651495
64.85,-2.647586
64.9,-2.639589
64.95,-2.590664
65,-2.516767
65.05,-2.478049
65.1,-2.510647
65.15,-2.575635
65.2,-2.618956
65.25,-2.601566
65.3,-2.579284
65.35,-2.586335
65.4,-2.59167
65.45,-2.637481
65.5,-2.689075
65.55,-2.728936
65.6,-2.720218
65.65,-2.686548
65.7,-2.646919
65.75,-2.698032
65.8,-2.766829
65.85,-2.818201
65.9,-2.827134
65.95,-2.829882
66,-2.832696
66.05,-2.787894
66.1,-2.785085
66.15,-2.779222
66.2,-2.778506
66.25,-2.750594
66.3,-2.82934
66.35,-2.965396
66.4,-3.022287
66.45,-3.025607
66.5,-2.998794
66.55,-2.94994
66.6,-2.889271
66.65,-2.812987
66.7,-2.756437
66.75,-2.72776
66.8,-2.678135
66.85,-2.658871
66.9,-2.730142
66.95,-2.791399
67,-2.879358
67.05,-2.864952
67.1,-2.781493
67.15,-2.647756
67.2,-2.232887
67.25,-1.178944
67.3,1.451162
67.35,6.658422
67.4,16.01826
67.45,30.86415
67.5,50.301
67.55,73.38394
67.6,97.73812
67.65,120.5807
67.7,138.1865
67.75,148.478
67.8,150.673
67.85,144.8153
67.9,131.8654
67.95,114.0526
68,94.02574
68.05,74.22901
68.1,56.61164
68.15,42.13248
68.2,31.24758
68.25,23.1795
68.3,17.28484
68.35,12.83884
68.4,9.522582
68.45,7.116166
68.5,5.473573
68.55,4.173481
68.6,2.981098
68.65,2.164661
68.7,1.453234
68.75,0.8467052
68.8,0.4113741
68.85,6.436615E-02
68.9,-0.2328086
68.95,-0.4866753
69,-0.6720832
69.05,-0.7490607
69.1,-0.8396633
69.15,-0.9551527
69.2,-1.092403
69.25,-1.213631
69.3,-1.342515
69.35,-1.471262
69.4,-1.53456
69.45,-1.563637
69.5,-1.560624
69.55,-1.590782
69.6,-1.659295
69.65,-1.685518
69.7,-1.714591
69.75,-1.796095
69.8,-1.713905
69.85,-1.668899
69.9,-1.626838
69.95,-1.581918
70,-1.615478
70.05,-1.561232
70.1,-1.616627
70.15,-1.725495
70.2,-1.819288
70.25,-1.970274
70.3,-2.114017
70.35,-2.208487
70.4,-2.289076
70.45,-2.342147
70.5,-2.330297
70.55,-2.301696
70.6,-2.299355
70.65,-2.29216
70.7,-2.315687
70.75,-2.421108
70.8,-2.515761
70.85,-2.55947
70.9,-2.597301
70.95,-2.552101
71,-2.566962
71.05,-2.582678
71.1,-2.65397
71.15,-2.779173
71.2,-2.849362
71.25,-2.847155
71.3,-2.834944
71.35,-2.780242
71.4,-2.822007
71.45,-2.922446
71.5,-2.972722
71.55,-3.000287
71.6,-3.072273
71.65,-3.048504
71.7,-3.025687
71.75,-3.024127
71.8,-3.063267
71.85,-3.084263
71.9,-3.044416
71.95,-3.025885
72,-3.070047
72.05,-3.101366
72.1,-3.133871
72.15,-3.191562
72.2,-3.183178
72.25,-3.149049
72.3,-3.049564
72.35,-3.019248
72.4,-2.992759
72.45,-2.965731
72.5,-2.925275
72.55,-2.925148
72.6,-3.022631
72.65,-3.075374
72.7,-3.165566
72.75,-3.235764
72.8,-3.225393
72.85,-3.217521
72.9,-3.148438
72.95,-3.113166
73,-3.124095
73.05,-3.096127
73.1,-3.111468
73.15,-3.118377
73.2,-3.137119
73.25,-3.173632
73.3,-3.155748
73.35,-3.154914
73.4,-3.22214
73.45,-3.246425
73.5,-3.238158
73.55,-3.283241
73.6,-3.32228
73.65,-3.328237
73.7,-3.308282
73.75,-3.2396
73.8,-3.24652
73.85,-3.160238
73.9,-3.140455
73.95,-3.15014
74,-3.240758
74.05,-3.326898
74.1,-3.347411
74.15,-3.374128
74.2,-3.447483
74.25,-3.41783
74.3,-3.419914
74.35,-3.407524
74.4,-3.387707
74.45,-3.313297
74.5,-3.225549
74.55,-3.248097
74.6,-3.299852
74.65,-3.311791
74.7,-3.341705
74.75,-3.376277
74.8,-3.342915
74.85,-3.275092
74.9,-3.257348
74.95,-3.244248
75,-3.252168
75.05,-3.251695
75.1,-3.283831
75.15,-3.268332
75.2,-3.193177
75.25,-2.929524
75.3,-2.349184
75.35,-1.036741
75.4,1.483943
75.45,5.857349
75.5,13.31164
75.55,24.69957
75.6,40.14778
75.65,59.20677
75.7,80.88004
75.75,103.4151
75.8,124.4196
75.85,141.427
75.9,153.3783
75.95,158.9082
76,157.3449
76.05,149.3115
76.1,135.9732
76.15,118.9773
76.2,100.2172
76.25,81.77821
76.3,65.14827
76.35,51.20844
76.4,39.71207
76.45,30.78241
76.5,23.74212
76.55,18.33386
76.6,14.35909
76.65,11.30846
76.7,8.910296
76.75,7.262167
76.8,5.922275
76.85,4.648749
76.9,3.652626
76.95,2.847922
77,2.135623
77.05,1.426988
77.1,0.9246288
77.15,0.5722808
77.2,0.2524876
77.25,3.189349E-02
77.3,-7.128219E-02
77.35,-0.1567129
77.4,-0.2901544
77.45,-0.457335
77.5,-0.6677423
77.55,-0.9228244
77.6,-1.120034
77.65,-1.242669
77.7,-1.304679
77.75,-1.333866
77.8,-1.355631
77.85,-1.313633
77.9,-1.300337
77.95,-1.394282
78,-1.530273
78.05,-1.631132
78.1,-1.678344
78.15,-1.659112
78.2,-1.603733
78.25,-1.59277
78.3,-1.667305
78.35,-1.743262
78.4,-1.793788
78.45,-1.782737
78.5,-1.755849
78.55,-1.764306
78.6,-1.842523
78.65,-1.950112
78.7,-2.031878
78.75,-2.071774
78.8,-2.090445
78.85,-2.107354
78.9,-2.114354
78.95,-2.142994
79,-2.194025
79.05,-2.226801
79.1,-2.258181
79.15,-2.309414
79.2,-2.338312
79.25,-2.370171
79.3,-2.467667
79.35,-2.52237
79.4,-2.58399
79.45,-2.632786
79.5,-2.708866
79.55,-2.786987
79.6,-2.890067
79.65,-3.038817
79.7,-3.13658
79.75,-3.169819
79.8,-3.165721
79.85,-3.129043
79.9,-3.099544
79.95,-3.054103
80,-3.055866
80.05,-3.109197
80.1,-3.153035
80.15,-3.17487
80.2,-3.13916
80.25,-3.058603
80.3,-2.993437
80.35,-2.958431
80.4,-2.961087
80.45,-3.048942
80.5,-3.114395
80.55,-3.101997
80.6,-3.019699
80.65,-2.936045
80.7,-2.923733
80.75,-3.018296
80.8,-3.145647
80.85,-3.284064
80.9,-3.321725
80.95,-3.30808
81,-3.297246
81.05,-3.199284
81.1,-2.909778
81.15,-2.305171
81.2,-1.04759
81.25,1.511539
81.3,5.827013
81.35,12.38149
81.4,21.66446
81.45,34.20414
81.5,49.97028
81.55,68.06374
81.6,87.47705
81.65,106.8684
81.7,124.8312
81.75,140.0059
81.8,151.0692
81.85,156.7379
81.9,156.3377
81.95,149.875
82,140.2342
82.05,127.0544
82.1,112.3448
82.15,97.31238
82.2,82.52747
82.25,68.71434
82.3,56.4147
82.35,46.15335
82.4,37.95429
82.45,30.97101
82.5,25.63869
82.55,21.59071
82.6,18.37457
82.65,15.73484
82.7,13.44881
82.75,11.37215
82.8,9.556498
82.85,8.264399
82.9,7.483497
82.95,6.834535
83,6.182697
83.05,5.531044
83.1,4.869555
83.15,4.283145
83.2,3.736363
83.25,3.372595
83.3,3.075789
83.35,2.850561
83.4,2.591342
83.45,2.235098
83.5,2.034251
83.55,1.752075
83.6,1.618259
83.65,1.658861
83.7,1.768811
83.75,1.726782
83.8,1.470648
83.85,1.233228
83.9,1.046552
83.95,0.8702893
84,0.7672441
84.05,0.7692031
84.1,0.7813513
84.15,0.7205689
84.2,0.6144726
84.25,0.5220279
84.3,0.4173659
84.35,0.2331008
84.4,6.954727E-02
84.45,-1.538123E-02
84.5,-9.533706E-02
84.55,-0.2182583
84.6,-0.4145664
84.65,-0.6251488
84.7,-0.8061281
84.75,-1.003172
84.8,-1.078995
84.85,-1.104836
84.9,-1.173184
84.95,-1.231917
85,-1.379015
85.05,-1.471362
85.1,-1.553969
85.15,-1.571103
85.2,-1.532898
85.25,-1.54192
85.3,-1.634623
85.35,-1.761404
85.4,-1.889543
85.45,-1.953514
85.5,-1.905906
85.55,-1.718469
85.6,-1.400727
85.65,-0.9746443
85.7,-0.1902537
85.75,1.239161
85.8,3.842431
85.85,8.166566
85.9,14.7952
85.95,24.25398
86,37.30532
86.05,53.8006
86.1,72.84607
86.15,93.4363
86.2,114.7242
86.25,134.8481
86.3,153.422
86.35,168.268
86.4,177.4062
86.45,180.0527
86.5,176.6447
86.55,168.2965
86.6,156.3667
86.65,142.2836
86.7,127.4424
86.75,111.9104
86.8,95.87135
86.85,80.57127
86.9,66.85322
86.95,54.91168
87,44.8174
87.05,36.73176
87.1,30.48673
87.15,25.33442
87.2,21.09024
87.25,17.66088
87.3,15.07052
87.35,13.03087
87.4,11.30454
87.45,10.06213
87.5,9.186339
87.55,8.259387
87.6,7.386824
87.65,6.474185
87.7,5.680266
87.75,4.980556
87.8,4.369079
87.85,4.024358
87.9,3.788994
87.95,3.633708
88,3.535078
88.05,3.443284
88.1,3.264212
88.15,3.056884
88.2,2.842093
88.25,2.592128
88.3,2.356112
88.35,2.07176
88.4,1.92525
88.45,1.840091
88.5,1.688336
88.55,1.483964
88.6,1.285032
88.65,0.9633337
88.7,0.80573
88.75,0.7019266
88.8,0.9261248
88.85,1.567493
88.9,3.055964
88.95,5.77098
89,10.11853
89.05,16.15877
89.1,25.02649
89.15,36.77171
89.2,51.35303
89.25,68.41611
89.3,87.63531
89.35,107.8103
89.4,127.0299
89.45,144.4686
89.5,159.0544
89.55,168.7928
89.6,172.9389
89.65,171.9631
89.7,166.4073
89.75,157.4372
89.8,146.2144
89.85,133.1252
89.9,119.105
89.95,104.5128
90,90.29175
90.05,77.32217
90.1,65.71982
90.15,55.86093
90.2,47.6624
90.25,40.18578
90.3,34.3317
90.35,30.20004
90.4,26.80735
90.45,24.10977
90.5,21.82007
90.55,19.59161
90.6,17.45806
90.65,15.66533
90.7,14.34459
90.75,13.43712
90.8,12.56426
90.85,11.58213
90.9,10.75937
90.95,10.10434
91,9.499185
91.05,9.077005
91.1,8.745474
91.15,8.367001
91.2,7.913692
91.25,7.323749
91.3,6.945655
91.35,6.719337
91.4,6.259515
91.45,5.904244
91.5,5.56962
91.55,5.177755
91.6,4.815519
91.65,4.537924
91.7,4.258421
91.75,3.939651
91.8,3.554975
91.85,3.371597
91.9,3.215913
91.95,2.998541
92,2.783032
92.05,2.581008
92.1,2.381382
92.15,2.206601
92.2,2.076288
92.25,2.002538
92.3,1.852196
92.35,1.554617
92.4,1.364108
92.45,1.278584
92.5,1.239285
92.55,1.227765
92.6,1.250235
92.65,1.308638
92.7,1.275371
92.75,1.189465
92.8,1.280352
92.85,1.290989
92.9,1.406325
92.95,1.793467
93,2.393791
93.05,3.294097
93.1,4.687306
93.15,6.946969
93.2,10.48072
93.25,15.64287
93.3,23.12381
93.35,33.07054
93.4,45.4242
93.45,60.15757
93.5,76.90063
93.55,94.64959
93.6,112.5405
93.65,129.8826
93.7,145.7322
93.75,159.3286
93.8,169.3833
93.85,175.4298
93.9,177.5104
93.95,175.47
94,169.8484
94.05,161.7346
94.1,151.6555
94.15,140.2252
94.2,127.5468
94.25,113.9422
94.3,101.3821
94.35,90.39592
94.4,81.05504
94.45,72.92149
94.5,65.82396
94.55,58.80362
94.6,52.04577
94.65,45.9411
94.7,40.79805
94.75,36.40756
94.8,32.54766
94.85,29.29679
94.9,26.63011
94.95,24.28408
95,22.38054
95.05,20.97672
95.1,19.29298
95.15,17.35433
95.2,15.43672
95.25,13.63998
95.3,11.99128
95.35,10.7462
95.4,9.873302
95.45,9.134917
95.5,8.402939
95.55,7.691995
95.6,6.653642
95.65,5.564946
95.7,4.656786
95.75,4.024099
95.8,3.504155
95.85,3.092649
95.9,2.854644
95.95,2.523404
96,2.0379
96.05,1.60876
96.1,1.275529
96.15,0.9496507
96.2,0.6235089
96.25,0.2955315
96.3,-2.726602E-02
96.35,-0.2847163
96.4,-0.4872839
96.45,-0.6645032
96.5,-0.7387865
96.55,-0.7056599
96.6,-0.7262699
96.65,-0.7657109
96.7,-0.9108146
96.75,-1.251282
96.8,-1.56283
96.85,-1.724193
96.9,-1.789185
96.95,-1.682468
97,-1.572168
97.05,-1.580466
97.1,-1.706829
97.15,-1.981324
97.2,-2.194002
97.25,-2.284454
97.3,-2.296644
97.35,-2.165349
97.4,-2.074655
97.45,-2.182527
97.5,-2.391261
97.55,-2.585228
97.6,-2.782796
97.65,-2.935577
97.7,-2.948319
97.75,-2.884585
97.8,-2.851532
97.85,-2.902645
97.9,-2.870601
97.95,-2.815493
98,-2.819626
98.05,-2.941109
98.1,-2.947102
98.15,-3.078402
98.2,-3.124261
98.25,-3.161739
98.3,-3.003304
98.35,-2.776462
98.4,-2.666033
98.45,-2.60518
98.5,-2.694193
98.55,-2.903855
98.6,-3.026208
98.65,-3.080196
98.7,-3.050909
98.75,-2.974389
98.8,-2.920112
98.85,-2.829728
98.9,-2.79067
98.95,-2.819102
99,-2.734175
99.05,-2.572836
99.1,-2.45854
99.15,-2.397761
99.2,-2.432018
99.25,-2.569855
99.3,-2.767834
99.35,-2.938669
99.4,-2.858972
99.45,-2.698002
99.5,-2.593257
99.55,-2.564751
99.6,-2.559228
99.65,-2.556582
99.7,-2.6432
99.75,-2.495909
99.8,-2.169249
99.85,-1.797202
99.9,-0.9865724
99.95,0.1658828
100,2.005612
100.05,4.525897
100.1,8.350547
100.15,14.31568
100.2,22.93032
100.25,34.05848
100.3,47.52728
100.35,63.45288
100.4,82.11046
100.45,102.8418
100.5,124.0896
100.55,146.2563
100.6,166.6957
100.65,184.4666
100.7,200.1729
100.75,212.6656
100.8,220.6244
100.85,223.2229
100.9,220.5353
100.95,213.5648
101,201.9789
101.05,188.6557
101.1,175.2666
101.15,160.9822
101.2,146.2865
101.25,131.6433
101.3,117.0585
101.35,102.1834
101.4,88.01276
101.45,75.73473
101.5,65.48852
101.55,57.09875
101.6,50.39391
101.65,44.81457
101.7,39.6378
101.75,34.75241
101.8,30.52721
101.85,26.91833
101.9,23.92672
101.95,21.41779
102,19.36749
102.05,17.6943
102.1,15.83748
102.15,13.80832
102.2,11.89229
102.25,10.2984
102.3,9.369188
102.35,8.603199
102.4,7.989959
102.45,7.454056
102.5,6.501018
102.55,5.631861
102.6,4.992482
102.65,4.55333
102.7,4.162821
102.75,3.738745
102.8,3.32499
102.85,2.79142
102.9,2.162494
102.95,1.677329
103,1.384357
103.05,1.215243
103.1,1.111656
103.15,0.9632495
103.2,0.7781842
103.25,0.5390697
103.3,0.3110186
103.35,0.1672963
103.4,0.1829038
103.45,0.1750467
103.5,0.2352189
103.55,0.3021854
103.6,0.516888
103.65,1.149459
103.7,2.175981
103.75,4.043169
103.8,7.02495
103.85,11.8281
103.9,18.93954
103.95,28.5867
104,40.19271
104.05,54.1512
104.1,70.47065
104.15,89.06683
104.2,110.562
104.25,133.7842
104.3,156.5534
104.35,177.6214
104.4,196.8754
104.45,213.1794
104.5,224.5926
104.55,232.6088
104.6,236.7261
104.65,235.3225
104.7,228.6366
104.75,219.3862
104.8,207.9002
104.85,195.0558
104.9,178.8497
104.95,163.8316
105,149.1134
105.05,133.0628
105.1,116.9526
105.15,101.5923
105.2,87.53254
105.25,75.24352
105.3,64.78764
105.35,56.71177
105.4,50.04083
105.45,43.34505
105.5,37.14737
105.55,32.22077
105.6,28.30051
105.65,25.00768
105.7,22.28019
105.75,19.7261
105.8,16.92503
105.85,14.39855
105.9,12.75818
105.95,11.61258
106,10.23721
106.05,8.977159
106.1,7.93133
106.15,6.689343
106.2,5.627249
106.25,4.894018
106.3,4.485059
106.35,3.738369
106.4,3.33796
106.45,3.287976
106.5,3.097885
106.55,2.877115
106.6,2.929705
106.65,3.04788
106.7,3.030085
106.75,2.911746
106.8,2.660076
106.85,2.144127
106.9,1.610535
106.95,1.265574
107,1.093605
107.05,0.9948722
107.1,0.7346758
107.15,0.2782106
107.2,-0.1903247
107.25,-0.5953479
107.3,-0.7347702
107.35,-0.8550212
107.4,-0.9312248
107.45,-0.9034318
107.5,-0.8804344
107.55,-0.9807729
107.6,-0.9793136
107.65,-0.8822904
107.7,-0.7245001
107.75,-0.5419503
107.8,-0.5371771
107.85,-0.6036459
107.9,-0.5942807
107.95,-0.8036345
108,-1.286395
108.05,-1.805748
108.1,-2.380672
108.15,-2.660841
108.2,-2.6657
108.25,-2.55912
108.3,-2.387583
108.35,-2.208809
108.4,-2.206067
108.45,-2.403378
108.5,-2.552742
108.55,-2.584857
108.6,-2.471481
108.65,-2.311518
108.7,-1.757748
108.75,-0.5621039
108.8,0.8036429
108.85,2.611749
108.9,5.897703
108.95,11.01047
109,16.96735
109.05,24.75058
109.1,35.73803
109.15,49.27533
109.2,63.46058
109.25,78.4484
109.3,95.76736
109.35,113.5362
109.4,130.6413
109.45,149.3755
109.5,168.796
109.55,184.6505
109.6,196.3681
109.65,205.0682
109.7,210.6862
109.75,213.361
109.8,213.0367
109.85,210.47
109.9,206.4981
109.95,198.3253
110,187.1557
110.05,177.9351
110.1,168.7456
110.15,157.7735
110.2,145.2778
110.25,131.7977
110.3,118.9465
110.35,106.1914
110.4,93.62698
110.45,83.42403
110.5,72.57511
110.55,61.02296
110.6,51.10534
110.65,43.72185
110.7,38.19168
110.75,34.63504
110.8,31.95328
110.85,29.58097
110.9,27.09083
110.95,24.01683
111,20.16921
111.05,16.16109
111.1,13.1887
111.15,11.6805
111.2,10.95903
111.25,10.35297
111.3,9.649594
111.35,8.150081
111.4,5.77729
111.45,3.426083
111.5,2.134617
111.55,1.729633
111.6,1.886897
111.65,2.138781
111.7,2.43974
111.75,2.062657
111.8,1.608176
111.85,1.078421
111.9,0.7773957
111.95,1.029704
112,1.712844
112.05,2.828806
112.1,5.0127
112.15,8.500479
112.2,12.92885
112.25,18.07794
112.3,24.10782
112.35,31.34333
112.4,39.92419
112.45,50.02338
112.5,61.7999
112.55,74.09708
112.6,85.40858
112.65,95.89848
112.7,104.4755
112.75,110.0624
112.8,111.2684
112.85,112.0606
112.9,114.5248
112.95,116.837
113,118.6077
113.05,118.1585
113.1,114.8145
113.15,109.4146
113.2,101.7935
113.25,95.34145
113.3,90.35747
113.35,84.71321
113.4,77.48676
113.45,69.39301
113.5,60.87896
113.55,52.79766
113.6,45.17876
113.65,38.61373
113.7,34.37814
113.75,31.52595
113.8,28.5329
113.85,25.75254
113.9,23.26177
113.95,20.697
114,18.27571
114.05,16.1951
114.1,15.07229
114.15,13.55226
114.2,11.17818
114.25,9.191402
114.3,7.974468
114.35,7.120587
114.4,5.783459
114.45,4.85729
114.5,3.82139
114.55,2.348618
114.6,1.43037
114.65,1.01336
114.7,0.6053169
114.75,0.3504513
114.8,0.1998363
114.85,6.843141E-02
114.9,6.744751E-02
114.95,0.2217323
115,0.3877148
115.05,0.3074194
115.1,-0.1067686
115.15,-0.4562218
115.2,-0.6418592
115.25,-0.8910958
115.3,-0.6757997
115.35,-2.591787E-02
115.4,0.5823376
115.45,0.8853886
115.5,0.4718226
115.55,-0.3172901
115.6,-1.198947
115.65,-2.11195
115.7,-1.983335
115.75,-1.458429
115.8,-1.401186
115.85,-1.526273
115.9,-1.678257
115.95,-1.802189
116,-1.926229
116.05,-1.934644
116.1,-1.853827
116.15,-2.043506
116.2,-2.628555
116.25,-2.880354
116.3,-2.585655
116.35,-2.377873
116.4,-2.439142
116.45,-2.537888
116.5,-2.67743
116.55,-2.84901
116.6,-3.050053
116.65,-3.286273
116.7,-3.335582
116.75,-3.50467
116.8,-3.966716
116.85,-4.17305
116.9,-4.26402
116.95,-4.375701
117,-4.52226
117.05,-4.798474
117.1,-4.873963
117.15,-4.815897
117.2,-4.69417
117.25,-4.263229
117.3,-3.889425
117.35,-3.791583
117.4,-3.707828
117.45,-3.727704
117.5,-3.836237
117.55,-3.977781
117.6,-4.115709
117.65,-4.253362
117.7,-4.495462
117.75,-4.79522
117.8,-4.967214
117.85,-5.042822
117.9,-5.145584
117.95,-5.228021
118,-5.229641
118.05,-5.13403
118.1,-5.065536
118.15,-4.988381
118.2,-4.891275
118.25,-4.93513
118.3,-4.985055
118.35,-4.937476
118.4,-4.955987
118.45,-5.053325
118.5,-5.223591
118.55,-5.435737
118.6,-5.52418
118.65,-5.533418
118.7,-5.448027
118.75,-5.305846
118.8,-5.134326
118.85,-4.944907
118.9,-4.850646
118.95,-4.831306
119,-4.874489
119.05,-5.034599
119.1,-5.284664
119.15,-5.526455
119.2,-5.676628
119.25,-5.747099
119.3,-5.769175
119.35,-5.632523
119.4,-5.38337
119.45,-5.245142
119.5,-5.282012
119.55,-5.445672
119.6,-5.510901
119.65,-5.53006
119.7,-5.41394
119.75,-5.149228
119.8,-4.956407
119.85,-4.976707
119.9,-5.167875
119.95,-5.380831
120,-5.574478
120.05,-5.712816
120.1,-5.756498
120.15,-5.751412
120.2,-5.737071
120.25,-5.718812
120.3,-5.727098
120.35,-5.714467
120.4,-5.645947
120.45,-5.600342
120.5,-5.590669
120.55,-5.589816
120.6,-5.604075
120.65,-5.594769
120.7,-5.597655
120.75,-5.563769
120.8,-5.498517
120.85,-5.424693
120.9,-5.379163
120.95,-5.36797
121,-5.559392
121.05,-5.650915
121.1,-5.714397
121.15,-5.670915
121.2,-5.698477
121.25,-5.689447
121.3,-5.727501
121.35,-5.783808
121.4,-5.857273
121.45,-5.817673
121.5,-5.791155
121.55,-5.82604
121.6,-5.85741
121.65,-5.726425
121.7,-5.600541
121.75,-5.581146
121.8,-5.622203
121.85,-5.703122
121.9,-5.818191
121.95,-5.928612
122,-5.894235
122.05,-5.784416
122.1,-5.724771
122.15,-5.759918
122.2,-5.758354
122.25,-5.803617
122.3,-5.787069
122.35,-5.80611
122.4,-5.831236
122.45,-5.878161
122.5,-5.913447
122.55,-5.936298
122.6,-5.949924
122.65,-5.973952
122.7,-5.927006
122.75,-5.900638
122.8,-5.868087
122.85,-5.855524
122.9,-5.871603
122.95,-5.893035
123,-5.912874
123.05,-5.925162
123.1,-5.904459
123.15,-5.862033
123.2,-5.830928
123.25,-5.835319
123.3,-5.895859
123.35,-5.960099
123.4,-5.962954
123.45,-5.94961
123.5,-5.925457
123.55,-5.953689
123.6,-6.002144
123.65,-6.111761
123.7,-6.191282
123.75,-6.234062
123.8,-6.160328
123.85,-6.135523
123.9,-6.125135
123.95,-6.157808
124,-6.172393
124.05,-6.220141
124.1,-6.205877
124.15,-6.167652
124.2,-6.07576
124.25,-6.043086
124.3,-6.067085
124.35,-6.124169
124.4,-6.168406
124.45,-6.161811
124.5,-6.120743
124.55,-6.059734
124.6,-5.973254
124.65,-5.938787
124.7,-6.010017
124.75,-6.058738
124.8,-6.143633
124.85,-6.171039
124.9,-6.159108
124.95,-6.16388
125,-6.153526
125.05,-6.150085
125.1,-6.131195
125.15,-6.048072
125.2,-5.970284
125.25,-5.8588
125.3,-5.80656
125.35,-5.873196
125.4,-5.985368
125.45,-6.059922
125.5,-6.091512
125.55,-6.095465
125.6,-6.079041
125.65,-6.050241
125.7,-6.092731
125.75,-6.151358
125.8,-6.167034
125.85,-6.126667
125.9,-6.046519
125.95,-5.96075
126,-5.884402
126.05,-5.864047
126.1,-5.827096
126.15,-5.795841
126.2,-5.770632
126.25,-5.767065
126.3,-5.755256
126.35,-5.761549
126.4,-5.759638
126.45,-5.85471
126.5,-5.914452
126.55,-5.923557
126.6,-5.934844
126.65,-5.939217
126.7,-6.008755
126.75,-6.107907
126.8,-6.186991
126.85,-6.210428
126.9,-6.182336
126.95,-6.078941
127,-6.044268
127.05,-6.092976
127.1,-6.146645
127.15,-6.188352
127.2,-6.189802
127.25,-6.149906
127.3,-6.128993
127.35,-6.107231
127.4,-6.056926
127.45,-6.052937
127.5,-6.060621
127.55,-6.102138
127.6,-6.13913
127.65,-6.187272
127.7,-6.17916
127.75,-6.116763
127.8,-6.068141
127.85,-6.039051
127.9,-6.063853
127.95,-6.104152
128,-6.095243
128.05,-6.00565
128.1,-5.888561
128.15,-5.818541
128.2,-5.801163
128.25,-5.853117
128.3,-5.963974
128.35,-6.016933
128.4,-6.00633
128.45,-5.972979
128.5,-5.937864
128.55,-5.896111
128.6,-5.890736
128.65,-5.960439
128.7,-6.018244
128.75,-6.025238
128.8,-5.99097
128.85,-5.907791
128.9,-5.787069
128.95,-5.7062
129,-5.727039
129.05,-5.842925
129.1,-5.94183
129.15,-6.081274
129.2,-6.166704
129.25,-6.196647
129.3,-6.19628
129.35,-6.155783
129.4,-6.152354
129.45,-6.186491
129.5,-6.243709
129.55,-6.239521
129.6,-6.219464
129.65,-6.215039
129.7,-6.203257
129.75,-6.180979
129.8,-6.194551
129.85,-6.246316
129.9,-6.286393
129.95,-6.263298
130,-6.206241
130.05,-6.191349
130.1,-6.18236
130.15,-6.169213
130.2,-6.176672
130.25,-6.226089
130.3,-6.286345
130.35,-6.276786
130.4,-6.135684
130.45,-6.038638
130.5,-6.024826
130.55,-6.026457
130.6,-6.07121
130.65,-6.128137
130.7,-6.151118
130.75,-6.132913
130.8,-6.082736
130.85,-6.14078
130.9,-6.216859
130.95,-6.237256
131,-6.22076
131.05,-6.190187
131.1,-6.151073
131.15,-6.148935
131.2,-6.166339
131.25,-6.18422
131.3,-6.231642
131.35,-6.281481
131.4,-6.287264
131.45,-6.233892
131.5,-6.150688
131.55,-6.079784
131.6,-6.048549
131.65,-6.085796
131.7,-6.206123
131.75,-6.30128
131.8,-6.314945
131.85,-6.288114
131.9,-6.332033
131.95,-6.336032
132,-6.293709
132.05,-6.219228
132.1,-6.158872
132.15,-6.153662
132.2,-6.186928
132.25,-6.234389
132.3,-6.293457
132.35,-6.35594
132.4,-6.388535
132.45,-6.359368
132.5,-6.341192
132.55,-6.336333
132.6,-6.319459
132.65,-6.340885
132.7,-6.371571
132.75,-6.346071
132.8,-6.283354
132.85,-6.23166
132.9,-6.220212
132.95,-6.212934
133,-6.20582
133.05,-6.23998
133.1,-6.253579
133.15,-6.255111
133.2,-6.241416
133.25,-6.284853
133.3,-6.248716
133.35,-6.174506
133.4,-6.157904
133.45,-6.202226
133.5,-6.269352
133.55,-6.287745
133.6,-6.279965
133.65,-6.260414
133.7,-6.219195
133.75,-6.210573
133.8,-6.210566
133.85,-6.164011
133.9,-6.131659
133.95,-6.135633
134,-6.167558
134.05,-6.251954
134.1,-6.330054
134.15,-6.368407
134.2,-6.329954
134.25,-6.271008
134.3,-6.273304
134.35,-6.288118
134.4,-6.284951
134.45,-6.325001
134.5,-6.25128
134.55,-6.118213
134.6,-6.096194
134.65,-6.167958
134.7,-6.240272
134.75,-6.33225
134.8,-6.408076
134.85,-6.392101
134.9,-6.313839
134.95,-6.272776
135,-6.26834
135.05,-6.252788
135.1,-6.268003
135.15,-6.301695
135.2,-6.306741
135.25,-6.290845
135.3,-6.294712
135.35,-6.32563
135.4,-6.35862
135.45,-6.396255
135.5,-6.444476
135.55,-6.471266
135.6,-6.424066
135.65,-6.362123
135.7,-6.328727
135.75,-6.269499
135.8,-6.246798
135.85,-6.301933
135.9,-6.372654
135.95,-6.396611
136,-6.385005
136.05,-6.334335
136.1,-6.273002
136.15,-6.238876
136.2,-6.282216
136.25,-6.294526
136.3,-6.267253
136.35,-6.239252
136.4,-6.2367
136.45,-6.201735
136.5,-6.154237
136.55,-6.140379
136.6,-6.186114
136.65,-6.262113
136.7,-6.325646
136.75,-6.386903
136.8,-6.413689
136.85,-6.361064
136.9,-6.261738
136.95,-6.25376
137,-6.214779
137.05,-6.291219
137.1,-6.319237
137.15,-6.30689
137.2,-6.320143
137.25,-6.292798
137.3,-6.261255
137.35,-6.261459
137.4,-6.237663
137.45,-6.242945
137.5,-6.19708
137.55,-6.153962
137.6,-6.201017
137.65,-6.297596
137.7,-6.369247
137.75,-6.393718
137.8,-6.374093
137.85,-6.371225
137.9,-6.374331
137.95,-6.348232
138,-6.357853
 
Alignment,On
