Data File Name,NK_JLC_NEXTERA1_High Sensitivity DNA Assay_DE24802700_2017-02-02_14-30-54.xad
Data File Path,C:\Users\jlchiniquy\Desktop\20171205_Nextera_library_size_to_loading_concentration_tool\NKaplan
Date Created,"Thursday, February 02, 2017 10:30:54 PM"
Date Last Modified,"Thursday, February 02, 2017 11:12:15 PM"
Version Created,B.02.07.SI532
Version Last Modified,B.02.07.SI532
 
Assay Name,High Sensitivity DNA
Assay Path,C:\Program Files\Agilent\2100 bioanalyzer\2100 expert\assays\dsDNA
Assay Title,High Sensitivity DNA Assay
Assay Version,1.0
 
Number of Samples Run,11
 
Sample Name,Ladder
Number of Events,2121
 
Time,Value
32,-5.172729E-02
32.05,-5.172729E-02
32.1,-5.172729E-02
32.15,-5.172729E-02
32.2,-5.172729E-02
32.25,-4.960899E-02
32.3,5.396877E-02
32.35,-0.0124587
32.4,-0.062549
32.45,-6.524143E-02
32.5,-6.579433E-02
32.55,-2.156489E-02
32.6,3.570922E-02
32.65,-7.014852E-03
32.7,-0.1473946
32.75,-0.1481035
32.8,-3.945018E-02
32.85,-6.373995E-02
32.9,3.256338E-02
32.95,0.1381847
33,0.1388155
33.05,0.1533224
33.1,0.2473029
33.15,0.1550411
33.2,-3.126774E-02
33.25,-8.885736E-02
33.3,-4.689205E-03
33.35,4.581814E-02
33.4,0.1343983
33.45,0.1515059
33.5,0.1934241
33.55,0.1794383
33.6,0.12799
33.65,0.2356056
33.7,0.2317902
33.75,9.443735E-02
33.8,6.456142E-03
33.85,4.119094E-02
33.9,3.508424E-02
33.95,9.092875E-02
34,0.2228533
34.05,7.323417E-02
34.1,-6.742907E-02
34.15,-0.2557734
34.2,-0.2534755
34.25,-0.296857
34.3,-0.1555926
34.35,-5.458231E-02
34.4,2.246137E-02
34.45,-5.910574E-02
34.5,-0.2647985
34.55,-0.3727877
34.6,-0.4971542
34.65,-0.6162267
34.7,-0.7199748
34.75,-0.6050296
34.8,-0.5369931
34.85,-0.2809629
34.9,-6.217925E-02
34.95,-0.1009321
35,-0.2646761
35.05,-0.3617631
35.1,-0.3858099
35.15,-0.3491004
35.2,-0.3632924
35.25,-0.4443794
35.3,-0.6155246
35.35,-0.6598902
35.4,-0.6600723
35.45,-0.6212817
35.5,-0.5082073
35.55,-0.4125364
35.6,-0.3052958
35.65,-0.1832506
35.7,-0.0588466
35.75,6.117909E-02
35.8,7.225334E-02
35.85,-4.423704E-02
35.9,-0.1905003
35.95,-0.2638011
36,-0.2207155
36.05,-0.2070454
36.1,-0.1294535
36.15,-7.371783E-02
36.2,-4.567711E-02
36.25,1.446819E-02
36.3,0.1216705
36.35,0.1440716
36.4,6.932402E-02
36.45,5.323224E-02
36.5,0.1418981
36.55,0.221097
36.6,0.2618026
36.65,0.2787889
36.7,0.2860648
36.75,0.2125807
36.8,0.1794536
36.85,0.2525599
36.9,0.3670737
36.95,0.3512525
37,0.3046693
37.05,0.2769867
37.1,0.3076055
37.15,0.4217242
37.2,0.4856429
37.25,0.6259037
37.3,0.7132881
37.35,0.7315598
37.4,0.7402726
37.45,0.6531233
37.5,0.5476316
37.55,0.4119277
37.6,0.4006854
37.65,0.4012344
37.7,0.3897132
37.75,0.4624574
37.8,0.5280088
37.85,0.6401584
37.9,0.7825182
37.95,0.7712403
38,0.7277116
38.05,0.5798205
38.1,0.4338157
38.15,0.4087851
38.2,0.4270422
38.25,0.6589347
38.3,0.6222774
38.35,0.6090902
38.4,0.4780118
38.45,0.5139711
38.5,0.6468747
38.55,0.6550927
38.6,0.6315972
38.65,0.5825095
38.7,0.5561976
38.75,0.6438758
38.8,0.8395137
38.85,0.9193258
38.9,0.8689338
38.95,0.8926445
39,0.8659481
39.05,0.8247207
39.1,0.7661517
39.15,0.7446693
39.2,0.7049514
39.25,0.7291187
39.3,0.776453
39.35,0.7990062
39.4,0.8280112
39.45,0.9085339
39.5,0.9756205
39.55,0.8720205
39.6,0.9235791
39.65,0.9299343
39.7,0.8145108
39.75,0.7148321
39.8,0.6605862
39.85,0.5623374
39.9,0.5559906
39.95,0.6786936
40,0.7139677
40.05,0.8058325
40.1,1.001498
40.15,1.045859
40.2,0.9687379
40.25,0.8220639
40.3,0.6281926
40.35,0.5131661
40.4,0.5583465
40.45,0.6440695
40.5,0.706058
40.55,0.7569612
40.6,0.6522206
40.65,0.5435492
40.7,0.6026467
40.75,0.6338882
40.8,0.7171704
40.85,0.7854483
40.9,0.7050822
40.95,0.6539626
41,0.600006
41.05,0.5606732
41.1,0.5298301
41.15,0.5955775
41.2,0.6687957
41.25,0.6663651
41.3,0.8575485
41.35,0.9466258
41.4,0.9543482
41.45,0.9860323
41.5,0.9960991
41.55,0.9681937
41.6,0.9232371
41.65,0.8806363
41.7,0.8893557
41.75,0.9179105
41.8,1.115867
41.85,1.236171
41.9,1.245055
41.95,1.184456
42,0.9916128
42.05,0.9265867
42.1,0.9109417
42.15,0.9298336
42.2,0.9471828
42.25,0.8828084
42.3,0.8088134
42.35,0.8610007
42.4,0.9175811
42.45,1.133653
42.5,1.773401
42.55,3.260805
42.6,6.456399
42.65,12.55582
42.7,22.58609
42.75,36.98586
42.8,55.11373
42.85,74.99448
42.9,93.34918
42.95,105.9854
43,109.4698
43.05,101.862
43.1,85.92078
43.15,65.52417
43.2,45.08341
43.25,27.93559
43.3,15.56758
43.35,7.856891
43.4,3.782878
43.45,2.019908
43.5,1.395724
43.55,1.091845
43.6,0.8889173
43.65,0.7549701
43.7,0.7091915
43.75,0.8219174
43.8,0.8699491
43.85,0.9031106
43.9,0.8722389
43.95,0.8047525
44,0.758168
44.05,0.7487995
44.1,0.8510166
44.15,0.8978242
44.2,0.9831566
44.25,1.036417
44.3,0.9941333
44.35,1.002251
44.4,1.02302
44.45,1.123403
44.5,1.227421
44.55,1.358327
44.6,1.387504
44.65,1.293963
44.7,1.340068
44.75,1.635619
44.8,2.477232
44.85,4.679388
44.9,9.364878
44.95,18.36715
45,33.85674
45.05,56.90455
45.1,87.0136
45.15,120.7447
45.2,151.4652
45.25,171.7637
45.3,175.9537
45.35,162.8335
45.4,135.07
45.45,99.98873
45.5,66.12191
45.55,38.81752
45.6,20.32649
45.65,9.835916
45.7,5.028811
45.75,3.223352
45.8,2.296156
45.85,1.671784
45.9,1.431401
45.95,1.299769
46,1.207166
46.05,1.072188
46.1,0.9502017
46.15,0.8143411
46.2,0.7083434
46.25,0.7829114
46.3,0.8190154
46.35,0.7475359
46.4,0.5606073
46.45,0.418571
46.5,0.4123515
46.55,0.4862403
46.6,0.5174149
46.65,0.3365249
46.7,0.2477219
46.75,0.2040271
46.8,0.2182325
46.85,0.2232397
46.9,0.2572509
46.95,0.2942705
47,0.3194352
47.05,0.3602297
47.1,0.4285613
47.15,0.435269
47.2,0.3210675
47.25,0.3333436
47.3,0.4593908
47.35,0.5940893
47.4,0.733676
47.45,0.6977705
47.5,0.5673099
47.55,0.432412
47.6,0.3903409
47.65,0.4779926
47.7,0.5474072
47.75,0.6494955
47.8,0.674769
47.85,0.7495552
47.9,0.8384172
47.95,0.7966364
48,0.6475902
48.05,0.4903318
48.1,0.3974972
48.15,0.2962607
48.2,0.2478801
48.25,0.2664677
48.3,0.2344878
48.35,0.2994089
48.4,0.2933887
48.45,0.3338293
48.5,0.2634542
48.55,0.2874018
48.6,0.2462063
48.65,0.1691634
48.7,0.1034156
48.75,-3.695273E-03
48.8,-9.214658E-02
48.85,-0.1430101
48.9,-0.2014376
48.95,-0.2872743
49,-0.1867484
49.05,-6.033323E-02
49.1,1.108828E-02
49.15,2.615177E-02
49.2,1.668177E-02
49.25,-9.128746E-02
49.3,-0.1575433
49.35,-0.1676468
49.4,-0.1868189
49.45,-0.2320211
49.5,-0.2349448
49.55,-0.111767
49.6,-0.1268753
49.65,-0.1736729
49.7,-0.2418325
49.75,-0.3072351
49.8,-0.3538546
49.85,-0.2473817
49.9,1.672308E-02
49.95,0.1415055
50,0.1174964
50.05,1.586115E-02
50.1,-9.026913E-02
50.15,-0.2134645
50.2,-0.2136353
50.25,0.3887638
50.3,2.32102
50.35,7.67551
50.4,19.56705
50.45,41.57356
50.5,75.40897
50.55,118.6414
50.6,165.4052
50.65,206.1983
50.7,228.6752
50.75,224.84
50.8,196.0767
50.85,151.2018
50.9,102.5251
50.95,60.78589
51,31.63146
51.05,14.6141
51.1,6.717058
51.15,3.593944
51.2,2.279582
51.25,1.750834
51.3,1.205601
51.35,0.8686327
51.4,0.981258
51.45,1.110117
51.5,1.024412
51.55,0.8793028
51.6,0.7039178
51.65,0.4331728
51.7,0.2366362
51.75,0.0537374
51.8,-0.1979171
51.85,-0.4226467
51.9,-0.5447642
51.95,-0.543538
52,-0.541773
52.05,-0.5316119
52.1,-0.6107948
52.15,-0.6574616
52.2,-0.7313589
52.25,-0.8346493
52.3,-0.8290249
52.35,-0.8023282
52.4,-0.6525733
52.45,-0.6394415
52.5,-0.6157411
52.55,-0.7248044
52.6,-0.7744338
52.65,-0.6966223
52.7,-0.6225525
52.75,-0.4665928
52.8,-0.3313197
52.85,-0.3033083
52.9,-0.3706752
52.95,-0.5199977
53,-0.5768563
53.05,-0.7627388
53.1,-0.8116213
53.15,-0.8182653
53.2,-0.7950983
53.25,-0.7967346
53.3,-0.7775412
53.35,-0.7149156
53.4,-0.7491788
53.45,-0.8086796
53.5,-0.8829165
53.55,-0.8931043
53.6,-0.9392211
53.65,-0.9305602
53.7,-0.9927913
53.75,-1.066215
53.8,-1.124212
53.85,-1.107881
53.9,-1.124838
53.95,-1.267138
54,-1.295537
54.05,-1.273733
54.1,-1.265403
54.15,-1.281921
54.2,-1.272201
54.25,-1.329735
54.3,-1.449344
54.35,-1.42809
54.4,-1.457666
54.45,-1.610013
54.5,-1.790682
54.55,-1.879815
54.6,-1.879408
54.65,-1.809571
54.7,-1.625717
54.75,-1.45618
54.8,-1.302983
54.85,-1.035373
54.9,0.3292924
54.95,4.838604
55,15.97066
55.05,38.30304
55.1,74.47765
55.15,123.5948
55.2,179.7914
55.25,231.5154
55.3,266.101
55.35,273.0687
55.4,250.3124
55.45,203.3278
55.5,144.4976
55.55,89.93302
55.6,48.25504
55.65,22.86642
55.7,10.22485
55.75,5.457792
55.8,3.903589
55.85,3.034085
55.9,2.294942
55.95,1.720488
56,1.343401
56.05,1.032016
56.1,0.6147118
56.15,0.2190673
56.2,-6.847583E-02
56.25,-0.14256
56.3,-0.176439
56.35,-0.1633429
56.4,-0.2634755
56.45,-0.5201389
56.5,-0.7074237
56.55,-0.8096754
56.6,-0.8753474
56.65,-1.056638
56.7,-1.275636
56.75,-1.507117
56.8,-1.61516
56.85,-1.569808
56.9,-1.49426
56.95,-1.542761
57,-1.585132
57.05,-1.505133
57.1,-1.408281
57.15,-1.436908
57.2,-1.340168
57.25,-1.484605
57.3,-1.730982
57.35,-1.940281
57.4,-1.966295
57.45,-1.994114
57.5,-2.07077
57.55,-2.016736
57.6,-2.01865
57.65,-2.08093
57.7,-2.038106
57.75,-1.984465
57.8,-2.117967
57.85,-2.243195
57.9,-2.194165
57.95,-1.883945
58,-1.713494
58.05,-1.65983
58.1,-1.752723
58.15,-1.941926
58.2,-2.096694
58.25,-2.069516
58.3,-1.985723
58.35,-1.897137
58.4,-1.882591
58.45,-1.833075
58.5,-1.827416
58.55,-2.026995
58.6,-2.036371
58.65,-2.016565
58.7,-1.905896
58.75,-1.771656
58.8,-1.697161
58.85,-1.657727
58.9,-1.745647
58.95,-1.728028
59,-1.835437
59.05,-1.747993
59.1,-1.695548
59.15,-1.745145
59.2,-1.719606
59.25,-1.679133
59.3,-1.608367
59.35,-1.67999
59.4,-1.437279
59.45,-1.394319E-02
59.5,5.11854
59.55,17.13794
59.6,40.91671
59.65,80.68134
59.7,134.3513
59.75,195.1132
59.8,251.1737
59.85,289.1326
59.9,299.92
59.95,281.3984
60,238.1983
60.05,180.2705
60.1,121.097
60.15,71.99472
60.2,38.27572
60.25,20.52325
60.3,12.95864
60.35,9.755184
60.4,7.904763
60.45,6.477828
60.5,5.598541
60.55,4.888983
60.6,4.207582
60.65,3.507776
60.7,2.911431
60.75,2.501839
60.8,2.260135
60.85,1.985679
60.9,1.623112
60.95,1.288225
61,0.9435897
61.05,0.5471203
61.1,0.1180617
61.15,-0.283276
61.2,-0.6359224
61.25,-0.9814557
61.3,-1.079245
61.35,-1.150283
61.4,-1.093102
61.45,-1.051589
61.5,-0.9914553
61.55,-1.033805
61.6,-1.305282
61.65,-1.554997
61.7,-1.74192
61.75,-1.8227
61.8,-1.838648
61.85,-1.822482
61.9,-1.857309
61.95,-1.819591
62,-1.778657
62.05,-1.781301
62.1,-1.864586
62.15,-2.050323
62.2,-2.351635
62.25,-2.458744
62.3,-2.436686
62.35,-2.358681
62.4,-2.286896
62.45,-2.27965
62.5,-2.328987
62.55,-2.42714
62.6,-2.408297
62.65,-2.380539
62.7,-2.328898
62.75,-2.23957
62.8,-2.290044
62.85,-2.333262
62.9,-2.35254
62.95,-2.400097
63,-2.346248
63.05,-2.33233
63.1,-2.360271
63.15,-2.51367
63.2,-2.59939
63.25,-2.537129
63.3,-2.543221
63.35,-2.606864
63.4,-2.597332
63.45,-2.542051
63.5,-2.477798
63.55,-2.375514
63.6,-2.226159
63.65,-2.093614
63.7,-2.140077
63.75,-2.148164
63.8,-2.236922
63.85,-2.254671
63.9,-2.144939
63.95,-2.00658
64,-1.952444
64.05,-2.060411
64.1,-2.216415
64.15,-2.319148
64.2,-2.210971
64.25,-2.096377
64.3,-2.112667
64.35,-2.096631
64.4,-2.107138
64.45,-2.152209
64.5,-2.18081
64.55,-2.150531
64.6,-2.162335
64.65,-2.155257
64.7,-2.125951
64.75,-2.145777
64.8,-2.197681
64.85,-2.142731
64.9,-2.110013
64.95,-2.073785
65,-2.028624
65.05,-2.11427
65.1,-2.223856
65.15,-2.262532
65.2,-2.246943
65.25,-2.264114
65.3,-2.342736
65.35,-2.414611
65.4,-2.485922
65.45,-2.432454
65.5,-2.392917
65.55,-2.241737
65.6,-2.234248
65.65,-2.253278
65.7,-2.296311
65.75,-2.357711
65.8,-2.40645
65.85,-2.402652
65.9,-2.392163
65.95,-2.350955
66,-2.271184
66.05,-2.253855
66.1,-2.220933
66.15,-2.259993
66.2,-2.360898
66.25,-2.356464
66.3,-2.316696
66.35,-2.230689
66.4,-2.151732
66.45,-2.105122
66.5,-2.146034
66.55,-2.109283
66.6,-2.069311
66.65,-2.118182
66.7,-2.170318
66.75,-2.211138
66.8,-2.301594
66.85,-2.340719
66.9,-2.303874
66.95,-2.227725
67,-2.124684
67.05,-2.050238
67.1,-1.958284
67.15,-1.943566
67.2,-1.988229
67.25,-2.086776
67.3,-2.202861
67.35,-2.164194
67.4,-2.229315
67.45,-2.240059
67.5,-2.202943
67.55,-2.279551
67.6,-2.358619
67.65,-2.389852
67.7,-2.35942
67.75,-2.33511
67.8,-2.254283
67.85,-2.15338
67.9,-2.24316
67.95,-2.288429
68,-2.377361
68.05,-2.381849
68.1,-2.299304
68.15,-2.239145
68.2,-2.181313
68.25,-2.194705
68.3,-2.185437
68.35,-1.693426
68.4,0.8866171
68.45,7.235353
68.5,21.48636
68.55,48.84283
68.6,91.73818
68.65,147.9672
68.7,212.3818
68.75,275.0906
68.8,325.5943
68.85,354.8968
68.9,358.6428
68.95,336.407
69,291.558
69.05,232.1213
69.1,168.0717
69.15,110.5893
69.2,66.13313
69.25,37.55127
69.3,22.19517
69.35,14.99993
69.4,11.70478
69.45,9.740103
69.5,8.023365
69.55,6.429346
69.6,5.345757
69.65,4.523299
69.7,3.853788
69.75,3.375384
69.8,2.993095
69.85,2.762517
69.9,2.567363
69.95,2.379687
70,2.223207
70.05,1.904891
70.1,1.598706
70.15,1.228173
70.2,0.7672411
70.25,0.3310112
70.3,0.1618571
70.35,8.983837E-02
70.4,5.297117E-02
70.45,-0.1070153
70.5,-0.3307111
70.55,-0.5696869
70.6,-0.7290261
70.65,-0.7310053
70.7,-0.7214749
70.75,-0.7173693
70.8,-0.8336073
70.85,-0.9549664
70.9,-1.044244
70.95,-1.13226
71,-1.20948
71.05,-1.226504
71.1,-1.238353
71.15,-1.3294
71.2,-1.390431
71.25,-1.421593
71.3,-1.419808
71.35,-1.408508
71.4,-1.400781
71.45,-1.261083
71.5,-1.102532
71.55,-0.9175584
71.6,-0.9295898
71.65,-1.046407
71.7,-1.241951
71.75,-1.360944
71.8,-1.314186
71.85,-1.190651
71.9,-1.053212
71.95,-0.9647925
72,-0.8861359
72.05,-0.8746956
72.1,-0.8278582
72.15,-0.8879024
72.2,-0.9218633
72.25,-0.8578875
72.3,-0.7733281
72.35,-0.7189888
72.4,-0.7006903
72.45,-0.6704847
72.5,-0.6730719
72.55,-0.6786954
72.6,-0.5696802
72.65,-0.4548138
72.7,-0.3878624
72.75,-0.3402003
72.8,-0.2327046
72.85,-0.2168995
72.9,-0.2544765
72.95,-0.3928587
73,-0.6182725
73.05,-0.7579917
73.1,-0.7512276
73.15,-0.6490788
73.2,-0.6074107
73.25,-0.531928
73.3,-0.4598051
73.35,-0.4974576
73.4,-0.4964688
73.45,-0.4503466
73.5,-0.4530046
73.55,-0.5262724
73.6,-0.6425406
73.65,-0.672016
73.7,-0.6959482
73.75,-0.6444774
73.8,-0.4916751
73.85,-0.4746766
73.9,-0.5146377
73.95,-0.4998449
74,-0.6538318
74.05,-0.7982435
74.1,-0.9071938
74.15,-0.9478747
74.2,-0.9450311
74.25,-0.8722036
74.3,-0.8111798
74.35,-0.8995253
74.4,-0.8895399
74.45,-0.8536987
74.5,-0.8411106
74.55,-0.7517181
74.6,-0.6119973
74.65,-0.5892584
74.7,-0.6502332
74.75,-0.6762344
74.8,-0.7193269
74.85,-0.7880094
74.9,-0.7207913
74.95,-0.7173856
75,-0.7920517
75.05,-0.6963418
75.1,-0.6128824
75.15,-0.6195355
75.2,-0.6486216
75.25,-0.701354
75.3,-0.6210644
75.35,-0.4510908
75.4,-0.3024873
75.45,-0.294976
75.5,-0.3777659
75.55,-0.4444709
75.6,-0.530711
75.65,-0.4066478
75.7,-0.3353783
75.75,-0.3566406
75.8,-0.2863982
75.85,-0.2629958
75.9,-0.1914446
75.95,-0.1445497
76,-0.1427227
76.05,-0.1505338
76.1,-0.1563308
76.15,-0.227155
76.2,-0.2528362
76.25,-0.1329753
76.3,1.051546E-02
76.35,0.8478597
76.4,3.6531
76.45,10.33377
76.5,23.79628
76.55,46.90277
76.6,82.50964
76.65,130.9687
76.7,190.1672
76.75,254.0928
76.8,316.2693
76.85,366.1096
76.9,395.3366
76.95,401.0369
77,384.5272
77.05,348.071
77.1,296.6841
77.15,236.5423
77.2,175.2953
77.25,120.7299
77.3,79.12827
77.35,50.87673
77.4,33.89818
77.45,24.41367
77.5,18.32808
77.55,14.76213
77.6,12.43279
77.65,11.10769
77.7,9.657581
77.75,8.348994
77.8,7.317095
77.85,6.49208
77.9,6.073252
77.95,5.60389
78,5.349152
78.05,5.245919
78.1,4.844433
78.15,4.464563
78.2,3.993289
78.25,3.422302
78.3,2.820501
78.35,2.358594
78.4,2.077862
78.45,1.718614
78.5,1.48137
78.55,1.24404
78.6,0.9640199
78.65,0.8104708
78.7,0.7146933
78.75,0.5093151
78.8,0.407357
78.85,0.2081015
78.9,7.084946E-02
78.95,-0.116119
79,-0.2009773
79.05,-0.2182334
79.1,-0.3037283
79.15,-0.1963394
79.2,-0.2312679
79.25,-0.3845278
79.3,-0.551614
79.35,-0.6484114
79.4,-0.6839427
79.45,-0.7958006
79.5,-0.7958064
79.55,-0.7599008
79.6,-0.8376094
79.65,-0.9111478
79.7,-0.9430214
79.75,-0.9913727
79.8,-0.9831627
79.85,-1.019577
79.9,-0.9665323
79.95,-1.018826
80,-1.067927
80.05,-1.028413
80.1,-0.9053977
80.15,-0.7909305
80.2,-0.770043
80.25,-0.7601592
80.3,-0.8433434
80.35,-0.9107227
80.4,-0.9636091
80.45,-0.9664701
80.5,-1.127888
80.55,-1.210824
80.6,-1.268741
80.65,-1.332986
80.7,-1.314314
80.75,-1.336887
80.8,-1.398443
80.85,-1.443532
80.9,-1.404431
80.95,-1.420088
81,-1.38457
81.05,-1.307228
81.1,-1.254663
81.15,-1.279025
81.2,-1.294635
81.25,-1.327743
81.3,-1.335749
81.35,-1.340518
81.4,-1.335617
81.45,-1.410178
81.5,-1.539098
81.55,-1.586839
81.6,-1.513293
81.65,-1.457933
81.7,-1.464655
81.75,-1.434502
81.8,-1.460137
81.85,-1.453578
81.9,-1.370872
81.95,-1.091488
82,-0.1385603
82.05,2.009306
82.1,7.058984
82.15,16.63886
82.2,34.33473
82.25,62.60542
82.3,102.0414
82.35,151.9435
82.4,208.3367
82.45,265.8684
82.5,318.7424
82.55,360.9786
82.6,387.8973
82.65,396.3041
82.7,387.6646
82.75,361.07
82.8,318.6309
82.85,267.7278
82.9,214.3091
82.95,163.5045
83,120.3601
83.05,86.90248
83.1,63.23566
83.15,47.57244
83.2,38.04909
83.25,31.90201
83.3,27.43053
83.35,23.51514
83.4,20.25082
83.45,18.41425
83.5,17.43124
83.55,16.6377
83.6,15.78532
83.65,14.55942
83.7,12.93278
83.75,11.36674
83.8,10.03721
83.85,9.203145
83.9,8.063669
83.95,7.503798
84,6.736115
84.05,6.359243
84.1,5.952909
84.15,5.527542
84.2,4.933752
84.25,4.217885
84.3,3.703458
84.35,3.362151
84.4,3.262596
84.45,3.097608
84.5,2.786429
84.55,2.466705
84.6,2.290631
84.65,2.35245
84.7,2.637913
84.75,2.86779
84.8,2.945833
84.85,2.925386
84.9,2.771969
84.95,2.36662
85,1.827709
85.05,1.310984
85.1,0.7227513
85.15,0.2847855
85.2,-0.2297465
85.25,-0.6855105
85.3,-0.9559627
85.35,-1.248305
85.4,-1.488294
85.45,-1.71495
85.5,-2.033579
85.55,-2.378948
85.6,-2.577183
85.65,-2.536139
85.7,-2.630289
85.75,-2.830876
85.8,-2.678423
85.85,-2.56363
85.9,-2.490633
85.95,-2.533656
86,-2.592995
86.05,-2.651733
86.1,-2.742878
86.15,-2.694973
86.2,-2.631099
86.25,-2.662083
86.3,-2.804032
86.35,-2.915826
86.4,-2.991355
86.45,-3.035103
86.5,-2.658981
86.55,-1.727649
86.6,0.1657693
86.65,4.017469
86.7,11.10277
86.75,23.20303
86.8,43.2304
86.85,71.59907
86.9,111.1883
86.95,159.8262
87,214.6386
87.05,272.5617
87.1,329.0526
87.15,378.761
87.2,415.5558
87.25,438.2424
87.3,443.7534
87.35,431.1605
87.4,404.4061
87.45,363.9077
87.5,313.7081
87.55,258.7712
87.6,205.4396
87.65,156.8943
87.7,115.9759
87.75,85.44356
87.8,63.83881
87.85,49.11235
87.9,39.65767
87.95,32.50031
88,27.09472
88.05,22.73387
88.1,19.39919
88.15,17.00777
88.2,14.68975
88.25,12.93034
88.3,11.16106
88.35,9.296053
88.4,7.39898
88.45,5.556347
88.5,4.233304
88.55,3.407641
88.6,2.957536
88.65,2.143631
88.7,1.301098
88.75,0.6428591
88.8,0.2798584
88.85,1.876358E-02
88.9,-0.1935022
88.95,-0.6299065
89,-1.204282
89.05,-1.506472
89.1,-1.675354
89.15,-1.762177
89.2,-1.834138
89.25,-1.609925
89.3,-1.619285
89.35,-1.661475
89.4,-1.717098
89.45,-2.016864
89.5,-2.114032
89.55,-2.092554
89.6,-1.999997
89.65,-1.995992
89.7,-1.898759
89.75,-1.532136
89.8,-0.1708394
89.85,2.769056
89.9,7.818648
89.95,18.12526
90,35.70528
90.05,62.20467
90.1,97.31142
90.15,142.313
90.2,193.743
90.25,248.1866
90.3,305.279
90.35,359.6925
90.4,405.2332
90.45,434.8364
90.5,447.0842
90.55,441.0802
90.6,419.9547
90.65,391.435
90.7,354.8003
90.75,309.9309
90.8,259.8611
90.85,209.3348
90.9,161.8646
90.95,122.4331
91,92.71123
91.05,70.88086
91.1,55.29384
91.15,44.26862
91.2,35.99693
91.25,29.72044
91.3,24.89269
91.35,20.93671
91.4,17.68418
91.45,15.1681
91.5,13.11222
91.55,11.35137
91.6,9.85197
91.65,8.612098
91.7,7.204705
91.75,6.375172
91.8,5.071562
91.85,3.84243
91.9,2.694709
91.95,1.688473
92,1.238525
92.05,1.078752
92.1,0.8734295
92.15,0.2771929
92.2,2.184977E-02
92.25,-0.184061
92.3,-0.3875787
92.35,-0.4581378
92.4,-0.458917
92.45,-0.7099971
92.5,-0.9724191
92.55,-1.149613
92.6,-1.410276
92.65,-1.682613
92.7,-1.683308
92.75,-1.549843
92.8,-1.516401
92.85,-1.5097
92.9,-1.764209
92.95,-2.053665
93,-2.288092
93.05,-2.390594
93.1,-2.566126
93.15,-2.627412
93.2,-2.523212
93.25,-2.601115
93.3,-2.71122
93.35,-2.78595
93.4,-2.875287
93.45,-2.973684
93.5,-3.030537
93.55,-3.21007
93.6,-3.348034
93.65,-3.160202
93.7,-2.705787
93.75,-1.633503
93.8,0.4758818
93.85,4.313302
93.9,11.05481
93.95,21.18967
94,35.66401
94.05,57.4826
94.1,87.2351
94.15,126.5311
94.2,173.9146
94.25,223.7143
94.3,272.9511
94.35,319.001
94.4,362.7224
94.45,400.1702
94.5,428.673
94.55,446.3281
94.6,452.5776
94.65,447.4968
94.7,429.9217
94.75,404.2512
94.8,368.9919
94.85,327.2463
94.9,282.9685
94.95,240.7012
95,202.2665
95.05,167.2879
95.1,137.3059
95.15,111.8443
95.2,91.02837
95.25,72.137
95.3,58.00871
95.35,46.63472
95.4,37.86515
95.45,30.88669
95.5,25.7401
95.55,21.50576
95.6,17.66308
95.65,14.71468
95.7,12.19632
95.75,10.2498
95.8,8.158289
95.85,6.831787
95.9,6.113345
95.95,5.348145
96,4.669065
96.05,3.81292
96.1,3.296564
96.15,3.163646
96.2,3.142481
96.25,2.8078
96.3,2.312671
96.35,1.43548
96.4,0.737404
96.45,7.106389E-02
96.5,-0.5614771
96.55,-0.9000072
96.6,-1.210459
96.65,-1.319769
96.7,-1.309889
96.75,-1.170302
96.8,-1.083724
96.85,-0.8558962
96.9,-0.742289
96.95,-1.123276
97,-1.827722
97.05,-2.228034
97.1,-2.310368
97.15,-1.987517
97.2,-1.859232
97.25,-1.777986
97.3,-1.89797
97.35,-2.262459
97.4,-2.430851
97.45,-2.548215
97.5,-2.593516
97.55,-2.810691
97.6,-2.535048
97.65,-2.293395
97.7,-2.270452
97.75,-2.369922
97.8,-2.504208
97.85,-2.546445
97.9,-2.548365
97.95,-2.655492
98,-2.878573
98.05,-3.183973
98.1,-3.227541
98.15,-2.939556
98.2,-2.62508
98.25,-2.355952
98.3,-2.465545
98.35,-2.448402
98.4,-2.332229
98.45,-2.338824
98.5,-2.42096
98.55,-2.596803
98.6,-2.826138
98.65,-3.039722
98.7,-2.999874
98.75,-3.19901
98.8,-3.742584
98.85,-4.11399
98.9,-4.056667
98.95,-3.840303
99,-3.51947
99.05,-3.125924
99.1,-2.913247
99.15,-2.770387
99.2,-2.655349
99.25,-2.748562
99.3,-3.060233
99.35,-3.369344
99.4,-3.741222
99.45,-3.937621
99.5,-3.824249
99.55,-3.651646
99.6,-3.395682
99.65,-3.142846
99.7,-2.968487
99.75,-2.940521
99.8,-2.912893
99.85,-3.181203
99.9,-3.34008
99.95,-3.543517
100,-3.640715
100.05,-3.36377
100.1,-3.228415
100.15,-2.755779
100.2,-1.49071
100.25,1.349349
100.3,6.089449
100.35,13.70954
100.4,24.90083
100.45,42.90742
100.5,70.21207
100.55,106.0759
100.6,150.7614
100.65,206.284
100.7,268.405
100.75,330.7593
100.8,393.1894
100.85,455.3098
100.9,509.4145
100.95,549.0378
101,575.03
101.05,583.197
101.1,577.4016
101.15,558.4988
101.2,532.3544
101.25,493.4924
101.3,442.4411
101.35,387.8798
101.4,333.2647
101.45,278.6782
101.5,228.4206
101.55,186.3927
101.6,148.866
101.65,115.5447
101.7,89.35624
101.75,69.47542
101.8,53.00547
101.85,42.78516
101.9,36.10996
101.95,29.97066
102,23.90589
102.05,19.50606
102.1,16.18328
102.15,13.68608
102.2,12.70252
102.25,10.97737
102.3,9.565846
102.35,8.651604
102.4,8.195503
102.45,8.176855
102.5,8.252101
102.55,7.97496
102.6,7.234568
102.65,6.605931
102.7,6.294315
102.75,5.881075
102.8,4.835013
102.85,3.35646
102.9,1.681486
102.95,0.7332795
103,0.4567671
103.05,0.6963293
103.1,1.351358
103.15,1.569615
103.2,1.270059
103.25,0.7563336
103.3,0.3460175
103.35,0.8036076
103.4,2.284153
103.45,4.651418
103.5,7.225916
103.55,11.24303
103.6,16.60484
103.65,26.19866
103.7,41.48008
103.75,64.98486
103.8,99.4982
103.85,145.8192
103.9,198.6948
103.95,257.4795
104,317.5193
104.05,376.2168
104.1,435.5887
104.15,491.1205
104.2,542.8728
104.25,581.5037
104.3,604.4402
104.35,613.2018
104.4,605.4799
104.45,586.2334
104.5,557.2175
104.55,517.8484
104.6,473.0762
104.65,426.2359
104.7,377.5805
104.75,329.3351
104.8,279.4611
104.85,230.4061
104.9,182.4946
104.95,141.6334
105,111.1509
105.05,87.36253
105.1,72.0106
105.15,60.02571
105.2,49.92056
105.25,40.34392
105.3,32.56398
105.35,27.63409
105.4,23.84171
105.45,22.0715
105.5,21.03269
105.55,19.88079
105.6,18.83768
105.65,18.1228
105.7,17.05623
105.75,16.29065
105.8,14.94244
105.85,14.02504
105.9,13.72111
105.95,13.72665
106,14.41818
106.05,13.83628
106.1,13.26392
106.15,12.99267
106.2,12.6551
106.25,12.2595
106.3,11.77978
106.35,11.20761
106.4,10.36649
106.45,9.687932
106.5,8.981218
106.55,8.586591
106.6,8.885126
106.65,9.731521
106.7,10.03863
106.75,9.404829
106.8,8.422675
106.85,7.558025
106.9,7.078283
106.95,7.114088
107,7.072043
107.05,6.538825
107.1,5.963113
107.15,5.842003
107.2,5.957204
107.25,5.671596
107.3,5.903489
107.35,6.281821
107.4,6.681298
107.45,6.883869
107.5,6.966641
107.55,7.098129
107.6,6.831441
107.65,7.088937
107.7,6.640145
107.75,6.199237
107.8,5.458323
107.85,5.057749
107.9,5.189522
107.95,5.036843
108,4.775189
108.05,4.589336
108.1,4.095169
108.15,3.916819
108.2,4.714292
108.25,6.060148
108.3,5.956345
108.35,5.35296
108.4,4.315177
108.45,3.226408
108.5,2.648399
108.55,3.444427
108.6,5.493927
108.65,8.806701
108.7,12.6797
108.75,18.5309
108.8,26.10761
108.85,35.18629
108.9,48.40655
108.95,67.30585
109,96.28381
109.05,130.8878
109.1,172.828
109.15,223.2203
109.2,277.6653
109.25,329.1742
109.3,372.9085
109.35,410.3682
109.4,446.9137
109.45,484.9795
109.5,514.7834
109.55,542.5541
109.6,557.7772
109.65,564.063
109.7,556.9221
109.75,540.595
109.8,520.0814
109.85,487.6367
109.9,454.683
109.95,420.5038
110,377.7062
110.05,328.4641
110.1,280.1919
110.15,239.0574
110.2,204.9505
110.25,182.1866
110.3,166.019
110.35,145.4554
110.4,123.9987
110.45,102.7733
110.5,82.24262
110.55,70.12082
110.6,63.36303
110.65,57.12773
110.7,49.74067
110.75,43.10288
110.8,38.63239
110.85,34.91073
110.9,34.8815
110.95,34.50185
111,32.26696
111.05,28.12106
111.1,23.68819
111.15,20.79342
111.2,17.96551
111.25,18.61656
111.3,18.36297
111.35,18.09479
111.4,16.68596
111.45,15.33709
111.5,13.79335
111.55,12.18703
111.6,11.19481
111.65,10.53856
111.7,9.585882
111.75,7.9234
111.8,7.200383
111.85,6.981332
111.9,8.818339
111.95,11.34044
112,14.87294
112.05,17.8198
112.1,19.32595
112.15,21.74526
112.2,26.78244
112.25,34.48444
112.3,44.53172
112.35,60.07347
112.4,75.10859
112.45,92.55225
112.5,114.6644
112.55,141.0702
112.6,168.4681
112.65,192.9319
112.7,211.8924
112.75,225.0525
112.8,235.6302
112.85,248.4033
112.9,259.2057
112.95,266.5395
113,270.9499
113.05,267.1821
113.1,255.3941
113.15,242.879
113.2,227.5688
113.25,208.5791
113.3,187.6446
113.35,164.3339
113.4,138.6172
113.45,115.852
113.5,98.64523
113.55,88.77876
113.6,80.56486
113.65,70.30338
113.7,55.01431
113.75,40.58941
113.8,31.03972
113.85,24.11803
113.9,21.53507
113.95,19.91014
114,16.28533
114.05,14.15946
114.1,12.81983
114.15,12.77762
114.2,11.60342
114.25,10.09406
114.3,8.572097
114.35,6.454153
114.4,6.025125
114.45,7.027531
114.5,9.238243
114.55,11.174
114.6,11.41914
114.65,9.881214
114.7,8.042924
114.75,6.966932
114.8,6.964937
114.85,7.289405
114.9,7.323868
114.95,7.974973
115,8.6101
115.05,8.777349
115.1,8.349698
115.15,6.897508
115.2,5.37055
115.25,5.258208
115.3,5.910811
115.35,6.438657
115.4,5.540401
115.45,5.657798
115.5,6.356852
115.55,7.18047
115.6,7.534505
115.65,6.754013
115.7,5.559698
115.75,4.348271
115.8,4.006495
115.85,4.254941
115.9,3.624241
115.95,2.900849
116,3.233777
116.05,3.124424
116.1,2.597914
116.15,2.333607
116.2,2.512083
116.25,2.641234
116.3,2.251324
116.35,1.92735
116.4,1.521215
116.45,0.5928566
116.5,-0.2700547
116.55,-0.8722971
116.6,-1.250001
116.65,-1.900974
116.7,-2.41775
116.75,-2.414811
116.8,-2.597419
116.85,-2.533645
116.9,-1.70585
116.95,-1.235147
117,-1.270847
117.05,-1.703103
117.1,-1.834342
117.15,-1.419323
117.2,-2.081505
117.25,-2.809141
117.3,-3.507641
117.35,-4.207679
117.4,-4.452164
117.45,-4.573141
117.5,-4.388736
117.55,-4.311363
117.6,-3.900072
117.65,-3.215799
117.7,-2.560738
117.75,-2.527503
117.8,-2.50514
117.85,-2.745668
117.9,-3.396432
117.95,-4.060972
118,-4.237991
118.05,-4.320598
118.1,-4.356624
118.15,-4.04717
118.2,-3.908983
118.25,-3.672265
118.3,-2.962598
118.35,-2.618431
118.4,-3.104663
118.45,-3.686072
118.5,-4.374488
118.55,-4.451297
118.6,-4.146253
118.65,-3.938515
118.7,-3.954836
118.75,-4.094513
118.8,-4.039192
118.85,-3.953228
118.9,-3.815305
118.95,-3.824487
119,-4.186068
119.05,-4.472356
119.1,-4.911849
119.15,-5.025985
119.2,-4.543096
119.25,-4.445099
119.3,-4.373148
119.35,-3.775836
119.4,-3.44311
119.45,-3.523332
119.5,-3.843523
119.55,-4.460669
119.6,-5.497157
119.65,-5.927344
119.7,-5.483368
119.75,-4.803718
119.8,-4.443084
119.85,-4.258641
119.9,-4.377827
119.95,-4.703334
120,-4.689366
120.05,-4.366916
120.1,-3.959871
120.15,-3.85216
120.2,-4.260194
120.25,-5.03739
120.3,-5.663105
120.35,-5.756296
120.4,-5.427893
120.45,-5.330683
120.5,-5.246112
120.55,-5.283267
120.6,-5.126453
120.65,-5.006512
120.7,-4.881147
120.75,-5.072726
120.8,-5.030252
120.85,-4.826141
120.9,-4.690552
120.95,-4.898481
121,-5.486768
121.05,-5.949461
121.1,-5.992108
121.15,-5.583013
121.2,-4.836677
121.25,-3.670293
121.3,-3.15985
121.35,-4.038793
121.4,-4.940974
121.45,-5.773922
121.5,-6.229903
121.55,-5.814245
121.6,-5.058915
121.65,-4.424583
121.7,-4.380976
121.75,-4.796761
121.8,-5.569742
121.85,-5.611613
121.9,-5.331551
121.95,-5.049281
122,-5.02307
122.05,-5.193071
122.1,-5.625867
122.15,-5.89594
122.2,-5.66096
122.25,-5.432208
122.3,-5.721518
122.35,-6.400285
122.4,-6.889805
122.45,-7.143867
122.5,-7.033044
122.55,-6.675436
122.6,-6.252763
122.65,-6.173921
122.7,-6.364171
122.75,-6.205514
122.8,-6.191442
122.85,-6.212936
122.9,-6.153824
122.95,-6.002913
123,-5.869732
123.05,-5.363737
123.1,-4.876186
123.15,-5.171903
123.2,-5.652501
123.25,-5.659135
123.3,-5.903311
123.35,-6.12273
123.4,-6.031227
123.45,-6.207918
123.5,-6.423572
123.55,-6.14439
123.6,-5.362187
123.65,-5.184329
123.7,-5.477685
123.75,-5.689078
123.8,-5.766274
123.85,-5.664044
123.9,-5.535608
123.95,-5.472481
124,-5.681767
124.05,-5.984
124.1,-6.082489
124.15,-6.006182
124.2,-5.925714
124.25,-5.678646
124.3,-5.541584
124.35,-5.215975
124.4,-4.924669
124.45,-5.18527
124.5,-5.733881
124.55,-6.471265
124.6,-6.833933
124.65,-6.954895
124.7,-6.620174
124.75,-5.829348
124.8,-5.360208
124.85,-5.385974
124.9,-5.821482
124.95,-6.089628
125,-6.141838
125.05,-6.191812
125.1,-6.10156
125.15,-6.286653
125.2,-6.605655
125.25,-6.837126
125.3,-7.017807
125.35,-6.830642
125.4,-6.766418
125.45,-6.224443
125.5,-5.455911
125.55,-5.213981
125.6,-5.442204
125.65,-5.789309
125.7,-6.189273
125.75,-6.42165
125.8,-6.239477
125.85,-5.97511
125.9,-6.037067
125.95,-6.231972
126,-6.487524
126.05,-7.084076
126.1,-7.17691
126.15,-7.219906
126.2,-7.110831
126.25,-6.502091
126.3,-6.103386
126.35,-6.026228
126.4,-6.19014
126.45,-6.350666
126.5,-6.797167
126.55,-6.912814
126.6,-6.342726
126.65,-6.132585
126.7,-5.96652
126.75,-5.748387
126.8,-5.174949
126.85,-4.952504
126.9,-5.066741
126.95,-5.177608
127,-5.645278
127.05,-6.376974
127.1,-6.62687
127.15,-6.596495
127.2,-6.735468
127.25,-7.041993
127.3,-6.875035
127.35,-6.741598
127.4,-6.661065
127.45,-6.440759
127.5,-6.247485
127.55,-6.439534
127.6,-6.892199
127.65,-7.226303
127.7,-7.211796
127.75,-7.107396
127.8,-7.013871
127.85,-6.717372
127.9,-6.761055
127.95,-7.008677
128,-7.312405
128.05,-7.484924
128.1,-7.779061
128.15,-8.024344
128.2,-7.954653
128.25,-7.876255
128.3,-7.753732
128.35,-7.606324
128.4,-7.469086
128.45,-7.4699
128.5,-7.601251
128.55,-7.709573
128.6,-7.857465
128.65,-7.95663
128.7,-7.772138
128.75,-7.56225
128.8,-7.518503
128.85,-7.643224
128.9,-7.646717
128.95,-7.736737
129,-7.808838
129.05,-7.739012
129.1,-7.791698
129.15,-7.838911
129.2,-7.856469
129.25,-7.767576
129.3,-7.727177
129.35,-7.728141
129.4,-7.656171
129.45,-7.634928
129.5,-7.536626
129.55,-7.258067
129.6,-7.330296
129.65,-7.439119
129.7,-7.28509
129.75,-7.213328
129.8,-7.245778
129.85,-7.312367
129.9,-7.148139
129.95,-7.24707
130,-7.24707
130.05,-7.24707
130.1,-7.24707
130.15,-7.24707
130.2,-7.24707
130.25,-7.24707
130.3,-7.24707
130.35,-7.24707
130.4,-7.24707
130.45,-7.24707
130.5,-7.24707
130.55,-7.24707
130.6,-7.24707
130.65,-7.24707
130.7,-7.24707
130.75,-7.24707
130.8,-7.24707
130.85,-7.24707
130.9,-7.24707
130.95,-7.24707
131,-7.24707
131.05,-7.24707
131.1,-7.24707
131.15,-7.24707
131.2,-7.24707
131.25,-7.24707
131.3,-7.24707
131.35,-7.24707
131.4,-7.24707
131.45,-7.24707
131.5,-7.24707
131.55,-7.24707
131.6,-7.24707
131.65,-7.24707
131.7,-7.24707
131.75,-7.24707
131.8,-7.24707
131.85,-7.24707
131.9,-7.24707
131.95,-7.24707
132,-7.24707
132.05,-7.24707
132.1,-7.24707
132.15,-7.24707
132.2,-7.24707
132.25,-7.24707
132.3,-7.24707
132.35,-7.24707
132.4,-7.24707
132.45,-7.24707
132.5,-7.24707
132.55,-7.24707
132.6,-7.24707
132.65,-7.24707
132.7,-7.24707
132.75,-7.24707
132.8,-7.24707
132.85,-7.24707
132.9,-7.24707
132.95,-7.24707
133,-7.24707
133.05,-7.24707
133.1,-7.24707
133.15,-7.24707
133.2,-7.24707
133.25,-7.24707
133.3,-7.24707
133.35,-7.24707
133.4,-7.24707
133.45,-7.24707
133.5,-7.24707
133.55,-7.24707
133.6,-7.24707
133.65,-7.24707
133.7,-7.24707
133.75,-7.24707
133.8,-7.24707
133.85,-7.24707
133.9,-7.24707
133.95,-7.24707
134,-7.24707
134.05,-7.24707
134.1,-7.24707
134.15,-7.24707
134.2,-7.24707
134.25,-7.24707
134.3,-7.24707
134.35,-7.24707
134.4,-7.24707
134.45,-7.24707
134.5,-7.24707
134.55,-7.24707
134.6,-7.24707
134.65,-7.24707
134.7,-7.24707
134.75,-7.24707
134.8,-7.24707
134.85,-7.24707
134.9,-7.24707
134.95,-7.24707
135,-7.24707
135.05,-7.24707
135.1,-7.24707
135.15,-7.24707
135.2,-7.24707
135.25,-7.24707
135.3,-7.24707
135.35,-7.24707
135.4,-7.24707
135.45,-7.24707
135.5,-7.24707
135.55,-7.24707
135.6,-7.24707
135.65,-7.24707
135.7,-7.24707
135.75,-7.24707
135.8,-7.24707
135.85,-7.24707
135.9,-7.24707
135.95,-7.24707
136,-7.24707
136.05,-7.24707
136.1,-7.24707
136.15,-7.24707
136.2,-7.24707
136.25,-7.24707
136.3,-7.24707
136.35,-7.24707
136.4,-7.24707
136.45,-7.24707
136.5,-7.24707
136.55,-7.24707
136.6,-7.24707
136.65,-7.24707
136.7,-7.24707
136.75,-7.24707
136.8,-7.24707
136.85,-7.24707
136.9,-7.24707
136.95,-7.24707
137,-7.24707
137.05,-7.24707
137.1,-7.24707
137.15,-7.24707
137.2,-7.24707
137.25,-7.24707
137.3,-7.24707
137.35,-7.24707
137.4,-7.24707
137.45,-7.24707
137.5,-7.24707
137.55,-7.24707
137.6,-7.24707
137.65,-7.24707
137.7,-7.24707
137.75,-7.24707
137.8,-7.24707
137.85,-7.24707
137.9,-7.24707
137.95,-7.24707
138,-7.24707
 
Alignment,On
