Data File Name,NK_M_J_M03232017_High Sensitivity DNA Assay_DE24802700_2017-03-23_11-01-57.xad
Data File Path,C:\Users\jlchiniquy\Desktop\20171205_Nextera_library_size_to_loading_concentration_tool\NKaplan
Date Created,"Thursday, March 23, 2017 6:00:00 PM"
Date Last Modified,"Thursday, March 23, 2017 6:45:00 PM"
Version Created,B.02.07.SI532
Version Last Modified,B.02.07.SI532
 
Assay Name,High Sensitivity DNA
Assay Path,C:\Program Files\Agilent\2100 bioanalyzer\2100 expert\assays\dsDNA
Assay Title,High Sensitivity DNA Assay
Assay Version,1.0
 
Number of Samples Run,11
 
Sample Name,Ladder
Number of Events,2121
 
Time,Value
32,-0.0494618
32.05,-0.1094897
32.1,-0.1631467
32.15,-9.197663E-02
32.2,-0.1118115
32.25,-0.1525595
32.3,-0.2078917
32.35,-3.005418E-02
32.4,1.660073E-02
32.45,5.370608E-02
32.5,8.707306E-02
32.55,0.1789945
32.6,0.1959118
32.65,0.202671
32.7,-1.070049E-02
32.75,-0.1640853
32.8,-0.1852704
32.85,-0.1532036
32.9,-4.720345E-02
32.95,0.1289758
33,7.749721E-02
33.05,-0.1160013
33.1,-0.1268489
33.15,-0.3111066
33.2,-0.2941532
33.25,-0.2198072
33.3,-0.2439459
33.35,-0.3272589
33.4,-0.2577128
33.45,-0.3270272
33.5,-0.4118429
33.55,-0.5689856
33.6,-0.5816439
33.65,-0.5522513
33.7,-0.4526857
33.75,-0.2997874
33.8,-0.4619544
33.85,-0.4630793
33.9,-0.516649
33.95,-0.5767962
34,-0.6089222
34.05,-0.494861
34.1,-0.4938505
34.15,-0.5262382
34.2,-0.4673271
34.25,-0.5014108
34.3,-0.5456464
34.35,-0.417837
34.4,-0.2992693
34.45,-0.210764
34.5,-0.1069086
34.55,-0.1676212
34.6,-0.1559736
34.65,-0.167889
34.7,-0.1009955
34.75,-0.2251196
34.8,-0.3026569
34.85,-0.3184703
34.9,-0.1388598
34.95,-4.427014E-02
35,4.15291E-03
35.05,-0.1668758
35.1,-0.350261
35.15,-0.306495
35.2,-0.136979
35.25,-0.1266971
35.3,-1.460264E-02
35.35,-0.2047185
35.4,-0.2442522
35.45,-0.3130042
35.5,-0.3515233
35.55,-0.3655545
35.6,-0.1524128
35.65,-0.1318525
35.7,-0.2442924
35.75,-0.4418189
35.8,-0.5227535
35.85,-0.5628579
35.9,-0.4544203
35.95,-0.2488346
36,-0.1116838
36.05,-6.219354E-02
36.1,2.606427E-03
36.15,-0.0690034
36.2,-0.1280867
36.25,2.400026E-02
36.3,1.839436E-02
36.35,-7.788812E-02
36.4,-5.336102E-02
36.45,-4.265488E-02
36.5,0.1254624
36.55,0.3682365
36.6,0.413082
36.65,0.4066893
36.7,0.377376
36.75,0.2896753
36.8,0.2616826
36.85,0.1967514
36.9,7.556126E-02
36.95,0.0299623
37,6.367076E-02
37.05,0.1274219
37.1,0.125021
37.15,-2.489451E-02
37.2,1.144482E-02
37.25,9.190085E-02
37.3,0.1081856
37.35,0.1522941
37.4,0.1315476
37.45,4.078504E-02
37.5,8.540918E-03
37.55,-1.731701E-03
37.6,-8.089821E-02
37.65,-0.261873
37.7,-0.2367757
37.75,-0.1023216
37.8,1.306169E-02
37.85,0.1774635
37.9,0.1550636
37.95,9.682274E-04
38,-3.856114E-02
38.05,4.205801E-02
38.1,0.1247372
38.15,0.2511289
38.2,0.2299055
38.25,0.1803328
38.3,0.1208153
38.35,0.122755
38.4,0.1722142
38.45,0.2917594
38.5,0.2570546
38.55,0.1865706
38.6,0.1639323
38.65,0.2876326
38.7,0.3463012
38.75,0.3553899
38.8,0.3319107
38.85,0.3384576
38.9,0.4477506
38.95,0.414234
39,0.3747332
39.05,0.2660172
39.1,0.2552507
39.15,0.2823031
39.2,0.3493611
39.25,0.191349
39.3,0.1377189
39.35,8.565592E-02
39.4,0.0207433
39.45,-4.245749E-02
39.5,-0.1519771
39.55,-0.217034
39.6,-9.807021E-02
39.65,1.767071E-03
39.7,-6.177931E-02
39.75,-0.1228694
39.8,-0.2750044
39.85,-0.371049
39.9,-0.3223202
39.95,-0.1439431
40,-0.2159365
40.05,-0.2127724
40.1,-0.2175475
40.15,-0.2399567
40.2,-0.1209767
40.25,3.051593E-02
40.3,0.1715862
40.35,0.2273202
40.4,0.2723501
40.45,0.2510153
40.5,6.481062E-02
40.55,0.1588516
40.6,0.3068564
40.65,0.4421242
40.7,0.5326421
40.75,0.5813338
40.8,0.3440068
40.85,0.1392947
40.9,0.1621837
40.95,0.2650927
41,0.3463882
41.05,0.3614301
41.1,0.3255358
41.15,0.2864169
41.2,0.3183767
41.25,0.3940152
41.3,0.3801329
41.35,0.2924562
41.4,0.22588
41.45,1.966305E-02
41.5,-0.1775609
41.55,-0.3096558
41.6,-0.2919179
41.65,-0.1451186
41.7,7.812018E-02
41.75,0.1225731
41.8,6.497377E-03
41.85,-0.1233502
41.9,-6.298523E-02
41.95,7.235552E-02
42,0.1241885
42.05,0.1258897
42.1,0.0510652
42.15,-0.1688052
42.2,-0.2413505
42.25,-0.2806636
42.3,-0.1790319
42.35,-4.720979E-03
42.4,0.1456296
42.45,0.164438
42.5,0.363298
42.55,1.50612
42.6,4.054633
42.65,9.329745
42.7,19.25562
42.75,35.38865
42.8,59.36253
42.85,88.17697
42.9,117.7862
42.95,141.9189
43,153.9821
43.05,148.9281
43.1,129.4703
43.15,100.744
43.2,70.03605
43.25,42.99915
43.3,23.94518
43.35,12.05668
43.4,5.635268
43.45,2.447793
43.5,1.098103
43.55,0.83547
43.6,0.6728666
43.65,0.6817296
43.7,0.5068308
43.75,0.3719943
43.8,0.2862725
43.85,0.1316482
43.9,5.908088E-03
43.95,0.1003854
44,0.1291072
44.05,8.637433E-02
44.1,0.1760686
44.15,7.156184E-02
44.2,-0.1067171
44.25,-0.1695744
44.3,-1.244907E-02
44.35,8.381048E-02
44.4,0.2319076
44.45,0.2953108
44.5,0.3071308
44.55,0.3467028
44.6,0.452187
44.65,0.4483329
44.7,0.3845356
44.75,0.4176768
44.8,0.6163385
44.85,1.189936
44.9,2.779032
44.95,6.253424
45,13.39898
45.05,26.52282
45.1,47.73883
45.15,75.31152
45.2,105.6966
45.25,132.1598
45.3,148.3387
45.35,146.8927
45.4,129.741
45.45,101.4546
45.5,69.89587
45.55,41.95924
45.6,22.52783
45.65,11.31755
45.7,5.485641
45.75,2.835936
45.8,1.760982
45.85,1.24412
45.9,0.9039928
45.95,0.7171718
46,0.6692524
46.05,0.7864126
46.1,0.6565124
46.15,0.5460898
46.2,0.3776607
46.25,0.3124532
46.3,0.3515531
46.35,0.4635592
46.4,0.5049267
46.45,0.5806288
46.5,0.4594002
46.55,0.3302023
46.6,0.2391049
46.65,0.1507005
46.7,0.1122617
46.75,8.503097E-02
46.8,3.338891E-02
46.85,-8.501805E-02
46.9,2.255202E-02
46.95,0.1421269
47,0.2673484
47.05,0.5056547
47.1,0.5954804
47.15,0.4486364
47.2,0.3518071
47.25,0.3793595
47.3,0.3312426
47.35,0.4947852
47.4,0.6412534
47.45,0.496404
47.5,0.4499303
47.55,0.4844027
47.6,0.4661336
47.65,0.5292647
47.7,0.5514222
47.75,0.4235422
47.8,0.3043083
47.85,0.1392438
47.9,0.1341913
47.95,0.1464841
48,0.1073434
48.05,5.126708E-02
48.1,-2.876613E-02
48.15,-1.796233E-02
48.2,1.088819E-02
48.25,6.801277E-02
48.3,8.436701E-02
48.35,-3.212359E-02
48.4,-8.703742E-02
48.45,-0.1372297
48.5,-0.1856242
48.55,-2.030035E-02
48.6,0.1853817
48.65,0.3044297
48.7,0.1309765
48.75,-7.324806E-02
48.8,-0.2922816
48.85,-0.2243664
48.9,1.937214E-02
48.95,0.1902307
49,0.2958385
49.05,0.2446319
49.1,0.2301592
49.15,0.256991
49.2,0.2715944
49.25,0.3071014
49.3,0.2889282
49.35,6.922007E-02
49.4,2.224812E-02
49.45,6.187053E-02
49.5,0.1621201
49.55,0.1753762
49.6,0.1781309
49.65,7.285257E-02
49.7,1.387602E-02
49.75,0.0664833
49.8,7.139685E-02
49.85,5.814786E-02
49.9,0.1080936
49.95,0.1965902
50,1.422457E-02
50.05,-0.1774056
50.1,-0.277997
50.15,-0.2439895
50.2,-0.2096024
50.25,-0.1567309
50.3,-0.1880438
50.35,1.195738E-02
50.4,0.5664644
50.45,2.756319
50.5,8.660865
50.55,21.58132
50.6,43.8174
50.65,76.70321
50.7,117.087
50.75,156.5066
50.8,183.3248
50.85,189.5738
50.9,172.8207
50.95,136.5244
51,94.03213
51.05,56.11615
51.1,28.80351
51.15,12.88866
51.2,6.05236
51.25,3.922753
51.3,3.122171
51.35,2.606285
51.4,2.125394
51.45,1.581961
51.5,1.215518
51.55,1.111294
51.6,1.047786
51.65,0.9501393
51.7,0.8482523
51.75,0.7933198
51.8,0.7405267
51.85,0.648332
51.9,0.6178475
51.95,0.3904147
52,0.3323237
52.05,0.2656261
52.1,0.0985643
52.15,-0.1044256
52.2,-0.1988945
52.25,-0.2304397
52.3,-0.2696792
52.35,-0.1763756
52.4,-0.1552282
52.45,-2.793635E-02
52.5,9.163879E-02
52.55,0.1148053
52.6,7.244292E-03
52.65,-0.018207
52.7,-4.100382E-02
52.75,-5.645053E-02
52.8,-2.282246E-02
52.85,6.062908E-02
52.9,7.236274E-02
52.95,-8.616221E-03
53,-3.745379E-02
53.05,-7.765129E-02
53.1,9.391596E-04
53.15,0.1834008
53.2,0.3767894
53.25,0.438358
53.3,0.3093142
53.35,0.2512974
53.4,0.2241505
53.45,0.1976168
53.5,0.1426176
53.55,-4.239421E-02
53.6,-0.1494841
53.65,-3.156592E-02
53.7,8.198794E-02
53.75,9.262752E-02
53.8,0.1484042
53.85,1.263747E-02
53.9,6.039664E-02
53.95,0.2034004
54,0.1958226
54.05,7.282511E-02
54.1,-8.712718E-02
54.15,-0.2318385
54.2,-0.1845724
54.25,-7.074867E-02
54.3,-7.870582E-02
54.35,-0.1568826
54.4,-0.332529
54.45,-0.3772575
54.5,-0.2164399
54.55,-9.719251E-02
54.6,-3.306408E-02
54.65,-3.822222E-03
54.7,-0.114067
54.75,-0.2461018
54.8,-0.3020502
54.85,-0.286812
54.9,-0.1306982
54.95,1.044029E-02
55,3.937397E-02
55.05,0.3955298
55.1,2.48401
55.15,8.414767
55.2,21.49698
55.25,45.17299
55.3,82.20872
55.35,129.399
55.4,175.6013
55.45,210.0266
55.5,222.6803
55.55,207.4704
55.6,169.9344
55.65,122.2575
55.7,75.90827
55.75,40.48729
55.8,19.17922
55.85,9.281094
55.9,5.116986
55.95,3.287002
56,2.39567
56.05,1.696096
56.1,1.465858
56.15,1.155545
56.2,0.8765054
56.25,0.6541281
56.3,0.5144904
56.35,0.4461991
56.4,0.4268442
56.45,0.3123228
56.5,0.1969412
56.55,-3.894426E-02
56.6,1.474751E-02
56.65,0.1082548
56.7,9.029412E-02
56.75,-0.1353262
56.8,-0.2492497
56.85,-0.2621009
56.9,-0.2884909
56.95,-0.2077915
57,-0.1646034
57.05,-0.1366016
57.1,-0.1836037
57.15,-0.1200061
57.2,-0.1239046
57.25,-0.2053521
57.3,-0.2644199
57.35,-0.1471633
57.4,-0.2284002
57.45,-0.2310629
57.5,-0.2016116
57.55,-0.2902859
57.6,-0.4103069
57.65,-0.3037097
57.7,-0.3265386
57.75,-0.3393174
57.8,-0.2787663
57.85,-0.174093
57.9,-0.1766956
57.95,-0.1425081
58,-0.2481951
58.05,-0.2824353
58.1,-0.3411847
58.15,-0.4432411
58.2,-0.5925432
58.25,-0.5960916
58.3,-0.6127967
58.35,-0.6844333
58.4,-0.7491163
58.45,-0.9436544
58.5,-1.013564
58.55,-0.7878872
58.6,-0.6549007
58.65,-0.6721897
58.7,-0.852133
58.75,-1.021885
58.8,-1.064496
58.85,-1.029437
58.9,-0.9583602
58.95,-0.9433671
59,-0.9941751
59.05,-0.9808797
59.1,-0.9426318
59.15,-1.002017
59.2,-1.069077
59.25,-1.024306
59.3,-0.8795364
59.35,-0.8017368
59.4,-0.7989798
59.45,-0.8325082
59.5,-0.9547616
59.55,-0.9516125
59.6,-0.8431974
59.65,-0.3942977
59.7,1.299207
59.75,6.52583
59.8,18.59898
59.85,40.91498
59.9,77.28333
59.95,123.7321
60,173.724
60.05,215.7419
60.1,239.3814
60.15,236.829
60.2,209.3843
60.25,165.7943
60.3,117.3849
60.35,73.76291
60.4,41.12825
60.45,22.68733
60.5,13.21922
60.55,8.908161
60.6,7.30507
60.65,6.196772
60.7,5.090062
60.75,4.148813
60.8,3.435342
60.85,2.859462
60.9,2.748813
60.95,2.47392
61,1.888981
61.05,1.291256
61.1,0.9801604
61.15,0.9062728
61.2,0.7272943
61.25,0.5645006
61.3,0.2314897
61.35,-4.929563E-02
61.4,-0.1715449
61.45,-9.941418E-02
61.5,-0.1607968
61.55,-0.4010242
61.6,-0.6289715
61.65,-0.77308
61.7,-0.7777035
61.75,-0.5482703
61.8,-0.5100379
61.85,-0.6861883
61.9,-0.9656938
61.95,-0.9797475
62,-1.075175
62.05,-1.066755
62.1,-1.102982
62.15,-1.269935
62.2,-1.429017
62.25,-1.569419
62.3,-1.648968
62.35,-1.620326
62.4,-1.55112
62.45,-1.490619
62.5,-1.460231
62.55,-1.523346
62.6,-1.55366
62.65,-1.623443
62.7,-1.74766
62.75,-1.749321
62.8,-1.744511
62.85,-1.880517
62.9,-2.045434
62.95,-2.007547
63,-2.059854
63.05,-2.049093
63.1,-2.112945
63.15,-2.172588
63.2,-2.170076
63.25,-1.980664
63.3,-1.765792
63.35,-1.669897
63.4,-1.667073
63.45,-1.675954
63.5,-1.689115
63.55,-1.76236
63.6,-1.777034
63.65,-1.757982
63.7,-1.658237
63.75,-1.599294
63.8,-1.441869
63.85,-1.374843
63.9,-1.393422
63.95,-1.423819
64,-1.532235
64.05,-1.595501
64.1,-1.548298
64.15,-1.520828
64.2,-1.434633
64.25,-1.473197
64.3,-1.465369
64.35,-1.513792
64.4,-1.569499
64.45,-1.632875
64.5,-1.751476
64.55,-1.758039
64.6,-1.7507
64.65,-1.717831
64.7,-1.695396
64.75,-1.646452
64.8,-1.809661
64.85,-1.890822
64.9,-1.871027
64.95,-1.937837
65,-1.979728
65.05,-1.887265
65.1,-1.885915
65.15,-1.893487
65.2,-1.857501
65.25,-1.954195
65.3,-1.952302
65.35,-1.803749
65.4,-1.800128
65.45,-1.832772
65.5,-1.881256
65.55,-1.788426
65.6,-1.594452
65.65,-1.464745
65.7,-1.52608
65.75,-1.416166
65.8,-1.469684
65.85,-1.420755
65.9,-1.317697
65.95,-1.283054
66,-1.280478
66.05,-1.349096
66.1,-1.431003
66.15,-1.477804
66.2,-1.456965
66.25,-1.409094
66.3,-1.381951
66.35,-1.498424
66.4,-1.556752
66.45,-1.518732
66.5,-1.434484
66.55,-1.544999
66.6,-1.592061
66.65,-1.568489
66.7,-1.528015
66.75,-1.486508
66.8,-1.43173
66.85,-1.716485
66.9,-1.885096
66.95,-1.832046
67,-1.83737
67.05,-1.687475
67.1,-1.616245
67.15,-1.646647
67.2,-1.692666
67.25,-1.762859
67.3,-1.738578
67.35,-1.718745
67.4,-1.624359
67.45,-1.574036
67.5,-1.527545
67.55,-1.526226
67.6,-1.650596
67.65,-1.674717
67.7,-1.640041
67.75,-1.506463
67.8,-1.417634
67.85,-1.458752
67.9,-1.571872
67.95,-1.547907
68,-1.410012
68.05,-1.33163
68.1,-1.299962
68.15,-1.343576
68.2,-1.417318
68.25,-1.402243
68.3,-1.231178
68.35,-1.26495
68.4,-1.371659
68.45,-1.522578
68.5,-1.622525
68.55,-1.579345
68.6,-1.559795
68.65,-1.351779
68.7,-0.9864861
68.75,9.737226E-02
68.8,3.526288
68.85,13.18839
68.9,32.00965
68.95,62.39282
69,105.2073
69.05,157.4639
69.1,210.3017
69.15,255.2501
69.2,284.2586
69.25,292.0073
69.3,276.7968
69.35,240.6188
69.4,190.3001
69.45,137.1231
69.5,89.67199
69.55,53.30455
69.6,30.45976
69.65,17.51932
69.7,10.94422
69.75,7.783785
69.8,5.927919
69.85,5.0035
69.9,4.229926
69.95,3.337586
70,2.868355
70.05,2.605341
70.1,2.238069
70.15,1.891689
70.2,1.694611
70.25,1.414948
70.3,1.12794
70.35,0.7095512
70.4,0.3874134
70.45,8.112647E-02
70.5,-0.1236622
70.55,-0.1691462
70.6,-0.2527547
70.65,-0.364009
70.7,-0.4244856
70.75,-0.6215517
70.8,-0.8993366
70.85,-1.132279
70.9,-1.24827
70.95,-1.254235
71,-1.137473
71.05,-1.184689
71.1,-1.178358
71.15,-1.182829
71.2,-1.170825
71.25,-1.235493
71.3,-1.306532
71.35,-1.459605
71.4,-1.550175
71.45,-1.462179
71.5,-1.482853
71.55,-1.514956
71.6,-1.446571
71.65,-1.257712
71.7,-1.163481
71.75,-1.158006
71.8,-1.301376
71.85,-1.458747
71.9,-1.382497
71.95,-1.255248
72,-1.196647
72.05,-1.194607
72.1,-1.18347
72.15,-1.114473
72.2,-1.07752
72.25,-1.170565
72.3,-1.356706
72.35,-1.531119
72.4,-1.492607
72.45,-1.248823
72.5,-1.091425
72.55,-1.148089
72.6,-1.278286
72.65,-1.260931
72.7,-1.205019
72.75,-1.135293
72.8,-1.163353
72.85,-1.304423
72.9,-1.465062
72.95,-1.503618
73,-1.60675
73.05,-1.688943
73.1,-1.653513
73.15,-1.796438
73.2,-1.900169
73.25,-1.837654
73.3,-1.837135
73.35,-1.774839
73.4,-1.739733
73.45,-1.797717
73.5,-1.786417
73.55,-1.797983
73.6,-1.856867
73.65,-1.910154
73.7,-1.867368
73.75,-1.855843
73.8,-1.841788
73.85,-1.804948
73.9,-1.777677
73.95,-1.646264
74,-1.554518
74.05,-1.490468
74.1,-1.503158
74.15,-1.402505
74.2,-1.381786
74.25,-1.398604
74.3,-1.433513
74.35,-1.461556
74.4,-1.605273
74.45,-1.647613
74.5,-1.664566
74.55,-1.687748
74.6,-1.694164
74.65,-1.621134
74.7,-1.466309
74.75,-1.516205
74.8,-1.539917
74.85,-1.687677
74.9,-1.81879
74.95,-1.97546
75,-1.991915
75.05,-1.959235
75.1,-1.857788
75.15,-1.83636
75.2,-1.862295
75.25,-2.030611
75.3,-2.038337
75.35,-1.777468
75.4,-1.640663
75.45,-1.608961
75.5,-1.830166
75.55,-1.889854
75.6,-1.915009
75.65,-1.719377
75.7,-1.690278
75.75,-1.679867
75.8,-1.673186
75.85,-1.633236
75.9,-1.609196
75.95,-1.491934
76,-1.31416
76.05,-1.425328
76.1,-1.543594
76.15,-1.564838
76.2,-1.602912
76.25,-1.464985
76.3,-1.477777
76.35,-1.547504
76.4,-1.482009
76.45,-1.441644
76.5,-1.361751
76.55,-1.157402
76.6,-0.5305113
76.65,1.737135
76.7,6.935406
76.75,17.82799
76.8,35.80902
76.85,64.03234
76.9,102.7934
76.95,150.7046
77,203.9521
77.05,252.6811
77.1,290.9971
77.15,314.1346
77.2,319.0515
77.25,304.4688
77.3,271.2334
77.35,227.3312
77.4,178.3458
77.45,131.0059
77.5,90.43744
77.55,59.605
77.6,38.03913
77.65,24.50392
77.7,16.15638
77.75,11.43386
77.8,8.56846
77.85,6.738214
77.9,5.524715
77.95,4.765439
78,4.163757
78.05,3.451292
78.1,2.754424
78.15,2.146796
78.2,1.826482
78.25,1.776641
78.3,1.59409
78.35,1.420615
78.4,1.106563
78.45,0.7714291
78.5,0.4117765
78.55,0.2549182
78.6,-3.054993E-02
78.65,-0.2321565
78.7,-0.2859338
78.75,-0.2494846
78.8,-0.4141272
78.85,-0.3723808
78.9,-0.404947
78.95,-0.4742523
79,-0.5114595
79.05,-0.6268597
79.1,-0.9168332
79.15,-1.095961
79.2,-1.122642
79.25,-1.243469
79.3,-1.246907
79.35,-1.247522
79.4,-1.375929
79.45,-1.421348
79.5,-1.323874
79.55,-1.376169
79.6,-1.530691
79.65,-1.525889
79.7,-1.57211
79.75,-1.617901
79.8,-1.728898
79.85,-1.726771
79.9,-1.795993
79.95,-1.753986
80,-1.640724
80.05,-1.654283
80.1,-1.695147
80.15,-1.743425
80.2,-1.595786
80.25,-1.531731
80.3,-1.400386
80.35,-1.305727
80.4,-1.355756
80.45,-1.394931
80.5,-1.520593
80.55,-1.602401
80.6,-1.75935
80.65,-1.627559
80.7,-1.500931
80.75,-1.314547
80.8,-1.441125
80.85,-1.570109
80.9,-1.69352
80.95,-1.855272
81,-1.868308
81.05,-1.893837
81.1,-2.011824
81.15,-2.134776
81.2,-2.204616
81.25,-2.397716
81.3,-2.484097
81.35,-2.365852
81.4,-2.390207
81.45,-2.539654
81.5,-2.696278
81.55,-2.725614
81.6,-2.693603
81.65,-2.429816
81.7,-2.316007
81.75,-2.383677
81.8,-2.500738
81.85,-2.485171
81.9,-2.51687
81.95,-2.527905
82,-2.461713
82.05,-2.391168
82.1,-2.409833
82.15,-2.406539
82.2,-2.006003
82.25,-1.064933
82.3,0.7945668
82.35,4.955348
82.4,12.34238
82.45,25.37694
82.5,46.33895
82.55,75.8191
82.6,114.5532
82.65,161.0063
82.7,207.3204
82.75,249.6073
82.8,285.9342
82.85,311.6873
82.9,323.5037
82.95,318.2467
83,297.9631
83.05,265.2434
83.1,223.3132
83.15,176.5176
83.2,132.6519
83.25,95.64017
83.3,68.00858
83.35,48.54858
83.4,34.69939
83.45,25.14882
83.5,19.23983
83.55,15.57163
83.6,13.3677
83.65,11.52906
83.7,10.05398
83.75,8.962045
83.8,8.001363
83.85,7.065651
83.9,6.121572
83.95,5.429063
84,4.922769
84.05,4.296979
84.1,3.381855
84.15,2.605988
84.2,2.09848
84.25,1.907557
84.3,1.723983
84.35,1.393529
84.4,0.8938376
84.45,0.6350476
84.5,0.4968432
84.55,0.4557247
84.6,0.3329062
84.65,0.101537
84.7,0.2709917
84.75,0.1456572
84.8,-6.504661E-02
84.85,-0.1230254
84.9,-0.1767362
84.95,-0.2912185
85,-0.348314
85.05,-0.3178884
85.1,-0.6043791
85.15,-0.8389812
85.2,-1.031071
85.25,-1.23766
85.3,-1.370215
85.35,-1.472692
85.4,-1.715828
85.45,-1.750246
85.5,-1.499282
85.55,-1.522686
85.6,-1.769414
85.65,-2.173369
85.7,-2.534027
85.75,-2.622348
85.8,-2.567623
85.85,-2.68821
85.9,-2.755649
85.95,-2.788595
86,-2.739775
86.05,-2.469588
86.1,-2.287035
86.15,-2.302074
86.2,-2.368779
86.25,-2.376807
86.3,-2.393615
86.35,-2.223085
86.4,-2.168468
86.45,-2.313232
86.5,-2.471114
86.55,-2.631624
86.6,-2.750445
86.65,-2.608066
86.7,-2.551457
86.75,-2.494461
86.8,-2.450345
86.85,-2.307633
86.9,-2.366327
86.95,-2.259548
87,-2.099173
87.05,-1.246366
87.1,0.7353746
87.15,4.718338
87.2,11.11097
87.25,23.82776
87.3,42.63445
87.35,68.67625
87.4,102.7691
87.45,144.1902
87.5,192.0716
87.55,240.7527
87.6,286.5394
87.65,324.9547
87.7,350.1979
87.75,358.9067
87.8,352.0824
87.85,333.3725
87.9,305.7483
87.95,268.4046
88,224.2145
88.05,178.8521
88.1,137.5865
88.15,102.1446
88.2,75.04102
88.25,53.52957
88.3,38.6013
88.35,28.79581
88.4,21.86503
88.45,16.40346
88.5,12.86403
88.55,10.79338
88.6,9.200948
88.65,7.582808
88.7,6.207064
88.75,4.948709
88.8,4.420966
88.85,4.326782
88.9,4.210418
88.95,3.701718
89,2.97519
89.05,2.248262
89.1,1.364597
89.15,0.8347743
89.2,0.4593399
89.25,-0.1239583
89.3,-0.2475114
89.35,-0.3569301
89.4,-0.5872274
89.45,-1.059196
89.5,-1.689518
89.55,-2.287508
89.6,-2.548048
89.65,-2.300167
89.7,-1.829845
89.75,-1.481451
89.8,-1.703546
89.85,-2.150411
89.9,-2.742413
89.95,-2.978229
90,-2.903866
90.05,-2.61036
90.1,-2.182051
90.15,-1.504538
90.2,-0.3317427
90.25,1.849149
90.3,6.599709
90.35,15.28734
90.4,30.41298
90.45,52.08348
90.5,80.86629
90.55,117.7047
90.6,162.1433
90.65,209.7822
90.7,256.2887
90.75,298.5155
90.8,330.369
90.85,350.6535
90.9,358.25
90.95,353.621
91,337.6764
91.05,309.1315
91.1,271.1343
91.15,226.0881
91.2,180.3794
91.25,138.782
91.3,105.1662
91.35,79.06075
91.4,59.33712
91.45,44.35996
91.5,33.47005
91.55,25.57493
91.6,20.00288
91.65,15.71587
91.7,12.41604
91.75,9.648153
91.8,7.768566
91.85,6.876971
91.9,5.880791
91.95,4.899325
92,3.820603
92.05,2.714223
92.1,1.747685
92.15,1.175894
92.2,0.6977948
92.25,0.260086
92.3,-0.0961248
92.35,-0.3881285
92.4,-0.7911757
92.45,-1.049389
92.5,-1.228535
92.55,-1.256073
92.6,-1.415478
92.65,-1.710664
92.7,-1.757584
92.75,-1.613115
92.8,-1.66177
92.85,-1.524297
92.9,-1.571859
92.95,-1.924414
93,-2.129434
93.05,-2.212818
93.1,-2.452206
93.15,-2.408639
93.2,-2.260184
93.25,-2.370172
93.3,-2.648385
93.35,-2.730819
93.4,-2.808093
93.45,-2.757422
93.5,-2.555276
93.55,-2.410263
93.6,-2.834143
93.65,-3.088463
93.7,-3.066126
93.75,-3.165429
93.8,-3.415369
93.85,-3.652569
93.9,-3.852287
93.95,-3.931756
94,-3.884178
94.05,-3.622663
94.1,-3.446197
94.15,-3.334998
94.2,-3.335326
94.25,-3.255672
94.3,-2.522309
94.35,-0.7866457
94.4,2.357551
94.45,7.664051
94.5,17.13849
94.55,30.92114
94.6,49.73316
94.65,74.50786
94.7,104.8863
94.75,139.8999
94.8,178.9177
94.85,220.7922
94.9,259.9696
94.95,296.3544
95,325.1291
95.05,345.9774
95.1,359.0941
95.15,360.719
95.2,350.0056
95.25,331.1989
95.3,304.753
95.35,272.9377
95.4,240.8535
95.45,207.0554
95.5,173.6511
95.55,142.8394
95.6,114.1979
95.65,89.43377
95.7,70.16643
95.75,55.76609
95.8,44.89839
95.85,35.80341
95.9,28.95026
95.95,23.22768
96,18.99793
96.05,15.66603
96.1,13.36318
96.15,11.23333
96.2,9.809004
96.25,8.284216
96.3,6.678255
96.35,5.082078
96.4,4.219383
96.45,3.911489
96.5,3.798917
96.55,3.395291
96.6,2.727161
96.65,2.332405
96.7,1.951806
96.75,1.962654
96.8,1.376214
96.85,0.6133907
96.9,-0.313625
96.95,-0.6930036
97,-0.626519
97.05,-0.7943658
97.1,-0.9826013
97.15,-1.143367
97.2,-1.153703
97.25,-0.9796619
97.3,-0.6274158
97.35,-0.7831298
97.4,-0.9382735
97.45,-1.101845
97.5,-0.9956175
97.55,-0.9336664
97.6,-1.115826
97.65,-1.520527
97.7,-1.967766
97.75,-2.068933
97.8,-2.075397
97.85,-1.917783
97.9,-1.93075
97.95,-2.193179
98,-2.55729
98.05,-2.601585
98.1,-2.426498
98.15,-2.050745
98.2,-1.669542
98.25,-2.134834
98.3,-2.691436
98.35,-2.988074
98.4,-2.845113
98.45,-2.797889
98.5,-2.48169
98.55,-2.625382
98.6,-2.871285
98.65,-2.9056
98.7,-2.761718
98.75,-2.78967
98.8,-2.935505
98.85,-2.921498
98.9,-2.993057
98.95,-2.783326
99,-2.788473
99.05,-2.854892
99.1,-2.980435
99.15,-2.775381
99.2,-2.483148
99.25,-2.073243
99.3,-2.188246
99.35,-2.434
99.4,-2.892704
99.45,-2.974046
99.5,-2.676515
99.55,-2.521836
99.6,-2.396295
99.65,-2.306046
99.7,-2.489207
99.75,-2.44442
99.8,-2.554443
99.85,-2.652858
99.9,-2.250459
99.95,-2.097455
100,-2.380235
100.05,-2.598634
100.1,-2.646703
100.15,-2.263531
100.2,-1.262266
100.25,-1.106407
100.3,-1.389203
100.35,-1.337489
100.4,2.784037E-02
100.45,2.984983
100.5,8.431989
100.55,17.63091
100.6,31.54919
100.65,50.41534
100.7,74.51997
100.75,107.7293
100.8,148.585
100.85,196.7971
100.9,251.0562
100.95,306.5972
101,359.9888
101.05,403.6085
101.1,434.5859
101.15,450.5529
101.2,456.8303
101.25,454.1834
101.3,439.0109
101.35,413.7398
101.4,380.0676
101.45,337.8752
101.5,295.1215
101.55,250.9186
101.6,205.9975
101.65,165.6232
101.7,130.7052
101.75,102.8458
101.8,80.86577
101.85,64.29723
101.9,49.54306
101.95,39.4784
102,31.59109
102.05,25.64139
102.1,21.84826
102.15,17.2871
102.2,13.68521
102.25,11.28506
102.3,9.255517
102.35,8.8881
102.4,8.631745
102.45,8.229488
102.5,7.553975
102.55,6.342719
102.6,4.716938
102.65,4.273325
102.7,3.71676
102.75,3.550281
102.8,3.256423
102.85,1.934636
102.9,0.826376
102.95,0.5491031
103,0.7478158
103.05,1.456884
103.1,1.722758
103.15,0.9919366
103.2,0.2108921
103.25,-9.561718E-02
103.3,-6.570123E-02
103.35,1.082351
103.4,2.313702
103.45,4.03225
103.5,5.497267
103.55,8.077145
103.6,12.74887
103.65,21.90926
103.7,35.26935
103.75,53.58342
103.8,77.36574
103.85,111.7321
103.9,154.066
103.95,205.997
104,257.3959
104.05,309.6366
104.1,362.0985
104.15,403.9873
104.2,438.3535
104.25,462.2568
104.3,474.2796
104.35,479.8433
104.4,477.4423
104.45,457.26
104.5,423.0245
104.55,382.7516
104.6,340.426
104.65,297.6364
104.7,255.1538
104.75,211.5927
104.8,169.0204
104.85,134.464
104.9,109.1054
104.95,87.31476
105,69.26384
105.05,57.0456
105.1,48.09195
105.15,40.05608
105.2,32.74117
105.25,25.83552
105.3,20.04362
105.35,17.45984
105.4,16.60788
105.45,14.55332
105.5,13.28858
105.55,12.11618
105.6,11.70965
105.65,10.75003
105.7,9.445978
105.75,8.422671
105.8,7.838756
105.85,7.606257
105.9,8.196773
105.95,8.289886
106,8.038034
106.05,7.14919
106.1,6.28166
106.15,6.09012
106.2,6.538861
106.25,7.049093
106.3,7.087616
106.35,6.905227
106.4,5.941602
106.45,5.491992
106.5,5.228324
106.55,5.083224
106.6,4.436599
106.65,3.855811
106.7,2.774254
106.75,2.47378
106.8,3.11601
106.85,4.218729
106.9,4.454368
106.95,3.315753
107,1.453186
107.05,0.4437749
107.1,0.4938644
107.15,1.831384
107.2,2.680092
107.25,2.356635
107.3,1.650646
107.35,1.641668
107.4,2.041027
107.45,2.372929
107.5,2.507781
107.55,1.996839
107.6,1.400182
107.65,1.874462
107.7,2.963929
107.75,3.381555
107.8,3.407392
107.85,2.392298
107.9,1.512989
107.95,0.8900344
108,0.976314
108.05,1.676021
108.1,3.202312
108.15,3.937015
108.2,3.462702
108.25,2.476269
108.3,1.558088
108.35,1.974367
108.4,2.550416
108.45,2.04658
108.5,1.37785
108.55,1.497353
108.6,3.62305
108.65,9.385047
108.7,16.43361
108.75,25.58812
108.8,35.35466
108.85,47.27128
108.9,64.79118
108.95,86.09969
109,111.3315
109.05,136.0218
109.1,164.9898
109.15,197.6879
109.2,233.7408
109.25,270.2239
109.3,303.1167
109.35,335.7845
109.4,366.7734
109.45,385.3241
109.5,395.7962
109.55,398.6747
109.6,396.9218
109.65,385.1407
109.7,369.1555
109.75,352.2931
109.8,334.0898
109.85,315.7166
109.9,287.3874
109.95,244.9995
110,203.3352
110.05,177.38
110.1,157.0103
110.15,140.6381
110.2,118.23
110.25,92.25518
110.3,74.17683
110.35,63.1831
110.4,55.93399
110.45,48.41473
110.5,42.59961
110.55,38.43845
110.6,36.45724
110.65,33.8763
110.7,29.40413
110.75,24.53316
110.8,21.41899
110.85,21.7114
110.9,21.44265
110.95,19.7581
111,16.16418
111.05,11.9845
111.1,8.766762
111.15,7.984029
111.2,8.176419
111.25,9.740438
111.3,9.629349
111.35,8.628459
111.4,6.753198
111.45,4.699175
111.5,3.557271
111.55,4.975996
111.6,6.476769
111.65,7.05389
111.7,6.59927
111.75,4.520418
111.8,1.933918
111.85,1.401695
111.9,3.292619
111.95,5.357961
112,7.230501
112.05,8.096941
112.1,8.653942
112.15,10.88559
112.2,14.77882
112.25,20.16433
112.3,32.14165
112.35,47.05559
112.4,59.89699
112.45,75.89765
112.5,96.8661
112.55,122.8692
112.6,152.3454
112.65,175.8585
112.7,201.837
112.75,231.6509
112.8,266.9935
112.85,293.9534
112.9,314.5118
112.95,328.0558
113,337.552
113.05,336.9635
113.1,335.5175
113.15,327.1272
113.2,311.7219
113.25,298.0579
113.3,288.5145
113.35,277.8515
113.4,263.0156
113.45,237.6442
113.5,202.6262
113.55,170.1854
113.6,147.4968
113.65,130.4261
113.7,114.1396
113.75,96.36259
113.8,79.08027
113.85,64.12244
113.9,51.80113
113.95,42.03461
114,36.18416
114.05,32.67852
114.1,31.68265
114.15,29.97291
114.2,27.57191
114.25,22.80607
114.3,20.07928
114.35,18.04832
114.4,16.78297
114.45,16.01008
114.5,15.18227
114.55,13.51377
114.6,10.69387
114.65,10.0816
114.7,10.88725
114.75,14.40309
114.8,15.408
114.85,14.81647
114.9,11.64638
114.95,10.17458
115,11.64913
115.05,15.3989
115.1,16.14471
115.15,13.60404
115.2,9.812355
115.25,6.305872
115.3,4.356144
115.35,3.734621
115.4,4.367685
115.45,4.480521
115.5,5.831516
115.55,6.645353
115.6,7.202862
115.65,7.510448
115.7,8.309989
115.75,7.657223
115.8,6.223781
115.85,5.693316
115.9,5.599611
115.95,6.8366
116,8.729766
116.05,8.69663
116.1,6.283345
116.15,2.876354
116.2,0.3002012
116.25,-0.2349075
116.3,0.9453146
116.35,1.180842
116.4,0.2393074
116.45,-1.078246
116.5,-1.39553
116.55,-0.9170999
116.6,-0.4750291
116.65,-1.424904
116.7,-1.736403
116.75,-1.406533
116.8,-0.7911592
116.85,-0.9116532
116.9,-2.135126
116.95,-2.654181
117,-2.73624
117.05,-2.744808
117.1,-2.446574
117.15,-2.56898
117.2,-2.470857
117.25,-1.899175
117.3,-1.674173
117.35,-2.597394
117.4,-3.153396
117.45,-3.586327
117.5,-4.091276
117.55,-3.815546
117.6,-3.434674
117.65,-3.609204
117.7,-4.287406
117.75,-4.335152
117.8,-4.149415
117.85,-3.815554
117.9,-3.433
117.95,-3.151938
118,-3.681436
118.05,-3.878686
118.1,-3.632422
118.15,-3.940963
118.2,-4.153254
118.25,-4.470222
118.3,-4.278973
118.35,-3.736849
118.4,-2.959526
118.45,-2.671026
118.5,-2.91381
118.55,-3.16319
118.6,-2.647123
118.65,-2.480233
118.7,-2.990944
118.75,-3.746333
118.8,-4.619125
118.85,-5.152049
118.9,-5.019835
118.95,-5.093658
119,-5.421117
119.05,-5.867668
119.1,-5.932698
119.15,-5.84868
119.2,-5.607518
119.25,-4.995323
119.3,-4.787053
119.35,-5.236431
119.4,-5.893788
119.45,-6.43436
119.5,-6.379677
119.55,-5.39434
119.6,-4.576899
119.65,-4.477762
119.7,-5.091406
119.75,-5.838794
119.8,-6.239712
119.85,-6.416326
119.9,-6.055756
119.95,-6.055756
120,-6.055756
120.05,-6.055756
120.1,-6.055756
120.15,-6.055756
120.2,-6.055756
120.25,-6.055756
120.3,-6.055756
120.35,-6.055756
120.4,-6.055756
120.45,-6.055756
120.5,-6.055756
120.55,-6.055756
120.6,-6.055756
120.65,-6.055756
120.7,-6.055756
120.75,-6.055756
120.8,-6.055756
120.85,-6.055756
120.9,-6.055756
120.95,-6.055756
121,-6.055756
121.05,-6.055756
121.1,-6.055756
121.15,-6.055756
121.2,-6.055756
121.25,-6.055756
121.3,-6.055756
121.35,-6.055756
121.4,-6.055756
121.45,-6.055756
121.5,-6.055756
121.55,-6.055756
121.6,-6.055756
121.65,-6.055756
121.7,-6.055756
121.75,-6.055756
121.8,-6.055756
121.85,-6.055756
121.9,-6.055756
121.95,-6.055756
122,-6.055756
122.05,-6.055756
122.1,-6.055756
122.15,-6.055756
122.2,-6.055756
122.25,-6.055756
122.3,-6.055756
122.35,-6.055756
122.4,-6.055756
122.45,-6.055756
122.5,-6.055756
122.55,-6.055756
122.6,-6.055756
122.65,-6.055756
122.7,-6.055756
122.75,-6.055756
122.8,-6.055756
122.85,-6.055756
122.9,-6.055756
122.95,-6.055756
123,-6.055756
123.05,-6.055756
123.1,-6.055756
123.15,-6.055756
123.2,-6.055756
123.25,-6.055756
123.3,-6.055756
123.35,-6.055756
123.4,-6.055756
123.45,-6.055756
123.5,-6.055756
123.55,-6.055756
123.6,-6.055756
123.65,-6.055756
123.7,-6.055756
123.75,-6.055756
123.8,-6.055756
123.85,-6.055756
123.9,-6.055756
123.95,-6.055756
124,-6.055756
124.05,-6.055756
124.1,-6.055756
124.15,-6.055756
124.2,-6.055756
124.25,-6.055756
124.3,-6.055756
124.35,-6.055756
124.4,-6.055756
124.45,-6.055756
124.5,-6.055756
124.55,-6.055756
124.6,-6.055756
124.65,-6.055756
124.7,-6.055756
124.75,-6.055756
124.8,-6.055756
124.85,-6.055756
124.9,-6.055756
124.95,-6.055756
125,-6.055756
125.05,-6.055756
125.1,-6.055756
125.15,-6.055756
125.2,-6.055756
125.25,-6.055756
125.3,-6.055756
125.35,-6.055756
125.4,-6.055756
125.45,-6.055756
125.5,-6.055756
125.55,-6.055756
125.6,-6.055756
125.65,-6.055756
125.7,-6.055756
125.75,-6.055756
125.8,-6.055756
125.85,-6.055756
125.9,-6.055756
125.95,-6.055756
126,-6.055756
126.05,-6.055756
126.1,-6.055756
126.15,-6.055756
126.2,-6.055756
126.25,-6.055756
126.3,-6.055756
126.35,-6.055756
126.4,-6.055756
126.45,-6.055756
126.5,-6.055756
126.55,-6.055756
126.6,-6.055756
126.65,-6.055756
126.7,-6.055756
126.75,-6.055756
126.8,-6.055756
126.85,-6.055756
126.9,-6.055756
126.95,-6.055756
127,-6.055756
127.05,-6.055756
127.1,-6.055756
127.15,-6.055756
127.2,-6.055756
127.25,-6.055756
127.3,-6.055756
127.35,-6.055756
127.4,-6.055756
127.45,-6.055756
127.5,-6.055756
127.55,-6.055756
127.6,-6.055756
127.65,-6.055756
127.7,-6.055756
127.75,-6.055756
127.8,-6.055756
127.85,-6.055756
127.9,-6.055756
127.95,-6.055756
128,-6.055756
128.05,-6.055756
128.1,-6.055756
128.15,-6.055756
128.2,-6.055756
128.25,-6.055756
128.3,-6.055756
128.35,-6.055756
128.4,-6.055756
128.45,-6.055756
128.5,-6.055756
128.55,-6.055756
128.6,-6.055756
128.65,-6.055756
128.7,-6.055756
128.75,-6.055756
128.8,-6.055756
128.85,-6.055756
128.9,-6.055756
128.95,-6.055756
129,-6.055756
129.05,-6.055756
129.1,-6.055756
129.15,-6.055756
129.2,-6.055756
129.25,-6.055756
129.3,-6.055756
129.35,-6.055756
129.4,-6.055756
129.45,-6.055756
129.5,-6.055756
129.55,-6.055756
129.6,-6.055756
129.65,-6.055756
129.7,-6.055756
129.75,-6.055756
129.8,-6.055756
129.85,-6.055756
129.9,-6.055756
129.95,-6.055756
130,-6.055756
130.05,-6.055756
130.1,-6.055756
130.15,-6.055756
130.2,-6.055756
130.25,-6.055756
130.3,-6.055756
130.35,-6.055756
130.4,-6.055756
130.45,-6.055756
130.5,-6.055756
130.55,-6.055756
130.6,-6.055756
130.65,-6.055756
130.7,-6.055756
130.75,-6.055756
130.8,-6.055756
130.85,-6.055756
130.9,-6.055756
130.95,-6.055756
131,-6.055756
131.05,-6.055756
131.1,-6.055756
131.15,-6.055756
131.2,-6.055756
131.25,-6.055756
131.3,-6.055756
131.35,-6.055756
131.4,-6.055756
131.45,-6.055756
131.5,-6.055756
131.55,-6.055756
131.6,-6.055756
131.65,-6.055756
131.7,-6.055756
131.75,-6.055756
131.8,-6.055756
131.85,-6.055756
131.9,-6.055756
131.95,-6.055756
132,-6.055756
132.05,-6.055756
132.1,-6.055756
132.15,-6.055756
132.2,-6.055756
132.25,-6.055756
132.3,-6.055756
132.35,-6.055756
132.4,-6.055756
132.45,-6.055756
132.5,-6.055756
132.55,-6.055756
132.6,-6.055756
132.65,-6.055756
132.7,-6.055756
132.75,-6.055756
132.8,-6.055756
132.85,-6.055756
132.9,-6.055756
132.95,-6.055756
133,-6.055756
133.05,-6.055756
133.1,-6.055756
133.15,-6.055756
133.2,-6.055756
133.25,-6.055756
133.3,-6.055756
133.35,-6.055756
133.4,-6.055756
133.45,-6.055756
133.5,-6.055756
133.55,-6.055756
133.6,-6.055756
133.65,-6.055756
133.7,-6.055756
133.75,-6.055756
133.8,-6.055756
133.85,-6.055756
133.9,-6.055756
133.95,-6.055756
134,-6.055756
134.05,-6.055756
134.1,-6.055756
134.15,-6.055756
134.2,-6.055756
134.25,-6.055756
134.3,-6.055756
134.35,-6.055756
134.4,-6.055756
134.45,-6.055756
134.5,-6.055756
134.55,-6.055756
134.6,-6.055756
134.65,-6.055756
134.7,-6.055756
134.75,-6.055756
134.8,-6.055756
134.85,-6.055756
134.9,-6.055756
134.95,-6.055756
135,-6.055756
135.05,-6.055756
135.1,-6.055756
135.15,-6.055756
135.2,-6.055756
135.25,-6.055756
135.3,-6.055756
135.35,-6.055756
135.4,-6.055756
135.45,-6.055756
135.5,-6.055756
135.55,-6.055756
135.6,-6.055756
135.65,-6.055756
135.7,-6.055756
135.75,-6.055756
135.8,-6.055756
135.85,-6.055756
135.9,-6.055756
135.95,-6.055756
136,-6.055756
136.05,-6.055756
136.1,-6.055756
136.15,-6.055756
136.2,-6.055756
136.25,-6.055756
136.3,-6.055756
136.35,-6.055756
136.4,-6.055756
136.45,-6.055756
136.5,-6.055756
136.55,-6.055756
136.6,-6.055756
136.65,-6.055756
136.7,-6.055756
136.75,-6.055756
136.8,-6.055756
136.85,-6.055756
136.9,-6.055756
136.95,-6.055756
137,-6.055756
137.05,-6.055756
137.1,-6.055756
137.15,-6.055756
137.2,-6.055756
137.25,-6.055756
137.3,-6.055756
137.35,-6.055756
137.4,-6.055756
137.45,-6.055756
137.5,-6.055756
137.55,-6.055756
137.6,-6.055756
137.65,-6.055756
137.7,-6.055756
137.75,-6.055756
137.8,-6.055756
137.85,-6.055756
137.9,-6.055756
137.95,-6.055756
138,-6.055756
 
Alignment,On
